{
  "id": "http://localhost:5000/OceanOptics_example1.json",
  "type": "Spectrum",
  "metadata": [
    {
      "Date": "Thursday, June 02, 2016, 12:49:44"
    },
    {
      "User": "Valued Ocean Optics Customer"
    },
    {
      "Spectrometer Serial Number": "HR2B941"
    },
    {
      "Spectrometer Channel": "Master"
    },
    {
      "Integration Time (msec)": "23"
    },
    {
      "Spectra Averaged": "50"
    },
    {
      "Boxcar Smoothing": "10"
    },
    {
      "Correct for Electrical Dark": "Disabled"
    },
    {
      "Time Normalized": "Disabled"
    },
    {
      "Dual-beam Reference": "Disabled"
    },
    {
      "Reference Channel": "Master"
    },
    {
      "Temperature": "Not acquired"
    },
    {
      "Spectrometer Type": "S2000"
    },
    {
      "ADC Type": "HR2000"
    },
    {
      "Number of Pixels in File": "2048"
    },
    {
      "Graph Title": ""
    }
  ],
  "proccesedValue": {
    "type": "Reflectance",
    "expectedMaxValue": 100.0,
    "expectedMinValue": 0.0,
    "unit": "percentage",
    "data": [
      [
        0.0,
        111.71,
        117.534,
        111.132,
        117.837,
        108.571,
        109.273,
        107.194,
        112.121,
        109.559,
        110.546,
        111.94,
        109.307,
        110.495,
        105.039,
        110.913,
        107.341,
        109.543,
        108.386,
        111.523,
        109.441,
        106.08,
        115.304,
        109.69,
        130.0,
        233.482,
        228.225,
        253.664,
        284.028,
        320.542,
        375.491,
        452.809,
        562.523,
        741.878,
        1150.645,
        2301.945,
        7904.591,
        -10359.112,
        -3086.425,
        -1637.481,
        -1072.163,
        -730.419,
        -529.593,
        -381.685,
        -278.882,
        -200.374,
        -145.225,
        -105.78,
        -76.282,
        -56.509,
        -43.315,
        -33.533,
        -26.543,
        -21.486,
        -17.746,
        -14.921,
        -12.62,
        -10.748,
        -9.229,
        -7.978,
        -6.925,
        -6.078,
        -5.375,
        -4.806,
        -4.288,
        -3.858,
        -3.427,
        -3.061,
        -2.754,
        -2.467,
        -2.205,
        -1.963,
        -1.755,
        -1.559,
        -1.382,
        -1.222,
        -1.07,
        -0.932,
        -0.804,
        -0.685,
        -0.565,
        -0.452,
        -0.345,
        -0.245,
        -0.139,
        -0.042,
        0.054,
        0.144,
        0.23,
        0.318,
        0.392,
        0.467,
        0.538,
        0.613,
        0.683,
        0.748,
        0.811,
        0.876,
        0.948,
        1.021,
        1.1,
        1.166,
        1.23,
        1.291,
        1.354,
        1.416,
        1.477,
        1.539,
        1.589,
        1.646,
        1.697,
        1.749,
        1.795,
        1.84,
        1.888,
        1.93,
        1.976,
        2.02,
        2.058,
        2.085,
        2.115,
        2.13,
        2.155,
        2.176,
        2.201,
        2.219,
        2.232,
        2.243,
        2.254,
        2.275,
        2.287,
        2.301,
        2.31,
        2.322,
        2.33,
        2.331,
        2.33,
        2.324,
        2.319,
        2.317,
        2.322,
        2.324,
        2.324,
        2.318,
        2.314,
        2.307,
        2.299,
        2.295,
        2.294,
        2.29,
        2.278,
        2.267,
        2.257,
        2.25,
        2.238,
        2.225,
        2.215,
        2.209,
        2.205,
        2.193,
        2.179,
        2.166,
        2.151,
        2.141,
        2.127,
        2.109,
        2.093,
        2.083,
        2.064,
        2.045,
        2.026,
        2.007,
        1.984,
        1.961,
        1.935,
        1.91,
        1.889,
        1.863,
        1.837,
        1.803,
        1.776,
        1.745,
        1.707,
        1.671,
        1.634,
        1.602,
        1.571,
        1.536,
        1.496,
        1.461,
        1.422,
        1.378,
        1.338,
        1.298,
        1.259,
        1.217,
        1.182,
        1.141,
        1.109,
        1.075,
        1.05,
        1.023,
        0.994,
        0.971,
        0.941,
        0.917,
        0.891,
        0.872,
        0.852,
        0.836,
        0.818,
        0.799,
        0.788,
        0.769,
        0.755,
        0.737,
        0.726,
        0.704,
        0.69,
        0.67,
        0.651,
        0.631,
        0.608,
        0.587,
        0.565,
        0.548,
        0.523,
        0.495,
        0.459,
        0.422,
        0.389,
        0.357,
        0.326,
        0.288,
        0.254,
        0.217,
        0.181,
        0.143,
        0.111,
        0.077,
        0.042,
        0.007,
        -0.032,
        -0.068,
        -0.107,
        -0.141,
        -0.182,
        -0.215,
        -0.246,
        -0.276,
        -0.302,
        -0.338,
        -0.366,
        -0.395,
        -0.423,
        -0.45,
        -0.472,
        -0.489,
        -0.506,
        -0.529,
        -0.552,
        -0.562,
        -0.567,
        -0.564,
        -0.569,
        -0.571,
        -0.574,
        -0.565,
        -0.553,
        -0.535,
        -0.505,
        -0.473,
        -0.427,
        -0.381,
        -0.324,
        -0.262,
        -0.184,
        -0.101,
        -0.013,
        0.086,
        0.199,
        0.337,
        0.48,
        0.636,
        0.798,
        0.98,
        1.185,
        1.409,
        1.652,
        1.911,
        2.189,
        2.458,
        2.737,
        3.025,
        3.337,
        3.656,
        3.957,
        4.267,
        4.567,
        4.875,
        5.194,
        5.511,
        5.805,
        6.094,
        6.376,
        6.639,
        6.897,
        7.136,
        7.369,
        7.582,
        7.808,
        8.011,
        8.199,
        8.383,
        8.561,
        8.724,
        8.869,
        9.02,
        9.155,
        9.305,
        9.441,
        9.558,
        9.665,
        9.782,
        9.877,
        9.963,
        10.061,
        10.155,
        10.251,
        10.323,
        10.4,
        10.472,
        10.536,
        10.592,
        10.648,
        10.706,
        10.754,
        10.815,
        10.858,
        10.906,
        10.944,
        10.978,
        11.017,
        11.054,
        11.072,
        11.106,
        11.14,
        11.168,
        11.201,
        11.222,
        11.251,
        11.274,
        11.298,
        11.316,
        11.328,
        11.337,
        11.343,
        11.364,
        11.358,
        11.366,
        11.368,
        11.373,
        11.381,
        11.38,
        11.377,
        11.381,
        11.386,
        11.375,
        11.385,
        11.371,
        11.365,
        11.356,
        11.356,
        11.351,
        11.349,
        11.355,
        11.37,
        11.379,
        11.385,
        11.398,
        11.405,
        11.408,
        11.404,
        11.411,
        11.409,
        11.406,
        11.407,
        11.399,
        11.41,
        11.405,
        11.412,
        11.424,
        11.426,
        11.427,
        11.421,
        11.416,
        11.416,
        11.415,
        11.418,
        11.412,
        11.42,
        11.43,
        11.437,
        11.438,
        11.445,
        11.465,
        11.489,
        11.496,
        11.511,
        11.514,
        11.526,
        11.539,
        11.538,
        11.555,
        11.562,
        11.577,
        11.586,
        11.595,
        11.593,
        11.594,
        11.594,
        11.59,
        11.584,
        11.588,
        11.603,
        11.604,
        11.616,
        11.608,
        11.614,
        11.618,
        11.618,
        11.616,
        11.614,
        11.623,
        11.619,
        11.622,
        11.62,
        11.627,
        11.628,
        11.632,
        11.638,
        11.64,
        11.649,
        11.645,
        11.648,
        11.635,
        11.635,
        11.618,
        11.62,
        11.616,
        11.618,
        11.621,
        11.623,
        11.629,
        11.623,
        11.626,
        11.624,
        11.633,
        11.633,
        11.626,
        11.622,
        11.609,
        11.609,
        11.605,
        11.607,
        11.6,
        11.605,
        11.604,
        11.604,
        11.602,
        11.599,
        11.594,
        11.59,
        11.594,
        11.593,
        11.605,
        11.603,
        11.604,
        11.595,
        11.594,
        11.601,
        11.607,
        11.62,
        11.617,
        11.619,
        11.628,
        11.631,
        11.628,
        11.633,
        11.642,
        11.651,
        11.654,
        11.657,
        11.666,
        11.665,
        11.667,
        11.661,
        11.661,
        11.676,
        11.687,
        11.698,
        11.696,
        11.704,
        11.702,
        11.713,
        11.719,
        11.719,
        11.733,
        11.749,
        11.752,
        11.76,
        11.761,
        11.761,
        11.766,
        11.765,
        11.76,
        11.756,
        11.744,
        11.736,
        11.713,
        11.691,
        11.674,
        11.657,
        11.639,
        11.621,
        11.603,
        11.58,
        11.561,
        11.539,
        11.518,
        11.495,
        11.473,
        11.45,
        11.44,
        11.422,
        11.412,
        11.41,
        11.404,
        11.406,
        11.403,
        11.409,
        11.418,
        11.423,
        11.432,
        11.428,
        11.429,
        11.42,
        11.409,
        11.4,
        11.383,
        11.377,
        11.367,
        11.356,
        11.349,
        11.336,
        11.328,
        11.314,
        11.302,
        11.295,
        11.289,
        11.283,
        11.271,
        11.261,
        11.25,
        11.243,
        11.243,
        11.24,
        11.243,
        11.251,
        11.257,
        11.265,
        11.268,
        11.272,
        11.275,
        11.274,
        11.277,
        11.28,
        11.285,
        11.284,
        11.284,
        11.279,
        11.283,
        11.29,
        11.295,
        11.301,
        11.305,
        11.313,
        11.318,
        11.325,
        11.332,
        11.335,
        11.337,
        11.343,
        11.346,
        11.35,
        11.357,
        11.362,
        11.363,
        11.366,
        11.375,
        11.376,
        11.378,
        11.377,
        11.374,
        11.369,
        11.366,
        11.361,
        11.353,
        11.349,
        11.34,
        11.333,
        11.33,
        11.326,
        11.323,
        11.322,
        11.321,
        11.324,
        11.326,
        11.327,
        11.333,
        11.33,
        11.33,
        11.33,
        11.333,
        11.333,
        11.336,
        11.334,
        11.332,
        11.334,
        11.33,
        11.331,
        11.328,
        11.326,
        11.325,
        11.319,
        11.314,
        11.307,
        11.296,
        11.284,
        11.273,
        11.258,
        11.253,
        11.247,
        11.244,
        11.233,
        11.229,
        11.221,
        11.22,
        11.221,
        11.219,
        11.218,
        11.219,
        11.224,
        11.226,
        11.227,
        11.23,
        11.236,
        11.246,
        11.253,
        11.261,
        11.268,
        11.272,
        11.271,
        11.271,
        11.27,
        11.272,
        11.272,
        11.273,
        11.268,
        11.264,
        11.259,
        11.254,
        11.243,
        11.232,
        11.22,
        11.21,
        11.197,
        11.181,
        11.164,
        11.15,
        11.135,
        11.121,
        11.108,
        11.094,
        11.083,
        11.069,
        11.054,
        11.043,
        11.032,
        11.023,
        11.014,
        11.001,
        10.997,
        10.994,
        10.99,
        10.988,
        10.988,
        10.986,
        10.984,
        10.982,
        10.978,
        10.973,
        10.968,
        10.963,
        10.959,
        10.955,
        10.952,
        10.949,
        10.943,
        10.935,
        10.933,
        10.929,
        10.927,
        10.922,
        10.917,
        10.911,
        10.902,
        10.892,
        10.889,
        10.887,
        10.88,
        10.877,
        10.873,
        10.872,
        10.869,
        10.865,
        10.861,
        10.86,
        10.861,
        10.856,
        10.858,
        10.85,
        10.848,
        10.847,
        10.842,
        10.84,
        10.838,
        10.839,
        10.843,
        10.839,
        10.835,
        10.837,
        10.832,
        10.834,
        10.831,
        10.827,
        10.827,
        10.824,
        10.823,
        10.82,
        10.824,
        10.819,
        10.821,
        10.818,
        10.817,
        10.821,
        10.823,
        10.824,
        10.826,
        10.824,
        10.824,
        10.823,
        10.817,
        10.819,
        10.816,
        10.819,
        10.821,
        10.821,
        10.821,
        10.817,
        10.818,
        10.817,
        10.823,
        10.819,
        10.821,
        10.823,
        10.823,
        10.823,
        10.824,
        10.818,
        10.82,
        10.82,
        10.824,
        10.83,
        10.828,
        10.825,
        10.824,
        10.825,
        10.824,
        10.825,
        10.831,
        10.832,
        10.829,
        10.828,
        10.83,
        10.831,
        10.831,
        10.83,
        10.827,
        10.827,
        10.828,
        10.828,
        10.827,
        10.826,
        10.824,
        10.825,
        10.83,
        10.832,
        10.831,
        10.832,
        10.833,
        10.83,
        10.826,
        10.83,
        10.831,
        10.832,
        10.832,
        10.828,
        10.83,
        10.83,
        10.831,
        10.831,
        10.828,
        10.827,
        10.829,
        10.829,
        10.827,
        10.824,
        10.821,
        10.821,
        10.819,
        10.814,
        10.812,
        10.814,
        10.808,
        10.805,
        10.803,
        10.801,
        10.802,
        10.794,
        10.792,
        10.786,
        10.783,
        10.781,
        10.778,
        10.772,
        10.772,
        10.767,
        10.763,
        10.761,
        10.758,
        10.754,
        10.754,
        10.752,
        10.746,
        10.743,
        10.739,
        10.734,
        10.73,
        10.727,
        10.726,
        10.721,
        10.719,
        10.715,
        10.711,
        10.709,
        10.705,
        10.7,
        10.698,
        10.697,
        10.691,
        10.691,
        10.69,
        10.687,
        10.685,
        10.685,
        10.684,
        10.678,
        10.672,
        10.673,
        10.67,
        10.666,
        10.665,
        10.662,
        10.662,
        10.657,
        10.652,
        10.65,
        10.645,
        10.643,
        10.638,
        10.634,
        10.626,
        10.622,
        10.618,
        10.613,
        10.612,
        10.608,
        10.607,
        10.606,
        10.6,
        10.594,
        10.59,
        10.584,
        10.577,
        10.571,
        10.572,
        10.569,
        10.566,
        10.564,
        10.561,
        10.556,
        10.554,
        10.552,
        10.548,
        10.545,
        10.54,
        10.531,
        10.527,
        10.522,
        10.515,
        10.512,
        10.508,
        10.505,
        10.501,
        10.5,
        10.496,
        10.49,
        10.484,
        10.479,
        10.474,
        10.468,
        10.464,
        10.457,
        10.454,
        10.448,
        10.442,
        10.442,
        10.438,
        10.435,
        10.432,
        10.428,
        10.421,
        10.416,
        10.408,
        10.4,
        10.393,
        10.387,
        10.38,
        10.375,
        10.37,
        10.365,
        10.362,
        10.355,
        10.351,
        10.342,
        10.339,
        10.333,
        10.324,
        10.317,
        10.307,
        10.301,
        10.295,
        10.289,
        10.283,
        10.28,
        10.277,
        10.275,
        10.267,
        10.259,
        10.252,
        10.243,
        10.236,
        10.227,
        10.222,
        10.215,
        10.211,
        10.202,
        10.195,
        10.189,
        10.182,
        10.176,
        10.167,
        10.163,
        10.157,
        10.151,
        10.144,
        10.137,
        10.129,
        10.123,
        10.12,
        10.115,
        10.11,
        10.102,
        10.099,
        10.092,
        10.084,
        10.077,
        10.073,
        10.07,
        10.061,
        10.055,
        10.051,
        10.044,
        10.04,
        10.036,
        10.031,
        10.032,
        10.03,
        10.027,
        10.024,
        10.019,
        10.015,
        10.01,
        10.009,
        10.004,
        10.0,
        9.997,
        9.992,
        9.985,
        9.98,
        9.973,
        9.97,
        9.964,
        9.959,
        9.953,
        9.945,
        9.938,
        9.927,
        9.921,
        9.916,
        9.909,
        9.904,
        9.903,
        9.902,
        9.897,
        9.893,
        9.889,
        9.888,
        9.888,
        9.886,
        9.886,
        9.889,
        9.892,
        9.893,
        9.894,
        9.893,
        9.893,
        9.897,
        9.894,
        9.891,
        9.886,
        9.887,
        9.882,
        9.874,
        9.866,
        9.856,
        9.85,
        9.845,
        9.837,
        9.827,
        9.815,
        9.803,
        9.79,
        9.775,
        9.761,
        9.748,
        9.733,
        9.721,
        9.704,
        9.691,
        9.677,
        9.665,
        9.648,
        9.636,
        9.626,
        9.614,
        9.604,
        9.592,
        9.579,
        9.564,
        9.554,
        9.547,
        9.537,
        9.527,
        9.519,
        9.511,
        9.503,
        9.495,
        9.485,
        9.476,
        9.467,
        9.457,
        9.445,
        9.438,
        9.43,
        9.422,
        9.416,
        9.413,
        9.404,
        9.395,
        9.392,
        9.384,
        9.376,
        9.37,
        9.365,
        9.362,
        9.353,
        9.35,
        9.345,
        9.342,
        9.337,
        9.336,
        9.331,
        9.326,
        9.32,
        9.31,
        9.302,
        9.296,
        9.287,
        9.281,
        9.275,
        9.271,
        9.266,
        9.267,
        9.262,
        9.259,
        9.251,
        9.247,
        9.238,
        9.232,
        9.222,
        9.216,
        9.207,
        9.2,
        9.199,
        9.195,
        9.194,
        9.191,
        9.186,
        9.182,
        9.179,
        9.176,
        9.168,
        9.162,
        9.152,
        9.149,
        9.142,
        9.137,
        9.129,
        9.126,
        9.121,
        9.117,
        9.113,
        9.109,
        9.107,
        9.099,
        9.096,
        9.09,
        9.088,
        9.083,
        9.079,
        9.071,
        9.067,
        9.061,
        9.055,
        9.053,
        9.046,
        9.043,
        9.036,
        9.032,
        9.026,
        9.021,
        9.014,
        9.007,
        9.0,
        8.991,
        8.985,
        8.979,
        8.975,
        8.967,
        8.96,
        8.956,
        8.955,
        8.949,
        8.947,
        8.944,
        8.934,
        8.93,
        8.926,
        8.926,
        8.924,
        8.917,
        8.919,
        8.915,
        8.91,
        8.909,
        8.907,
        8.909,
        8.908,
        8.908,
        8.903,
        8.898,
        8.895,
        8.892,
        8.888,
        8.886,
        8.88,
        8.878,
        8.872,
        8.863,
        8.855,
        8.847,
        8.844,
        8.835,
        8.829,
        8.826,
        8.821,
        8.813,
        8.804,
        8.794,
        8.784,
        8.787,
        8.783,
        8.779,
        8.775,
        8.772,
        8.772,
        8.773,
        8.769,
        8.77,
        8.767,
        8.765,
        8.766,
        8.765,
        8.761,
        8.763,
        8.756,
        8.752,
        8.756,
        8.755,
        8.749,
        8.749,
        8.742,
        8.739,
        8.731,
        8.726,
        8.716,
        8.704,
        8.694,
        8.69,
        8.68,
        8.676,
        8.673,
        8.665,
        8.654,
        8.652,
        8.643,
        8.638,
        8.63,
        8.623,
        8.614,
        8.614,
        8.606,
        8.596,
        8.589,
        8.584,
        8.577,
        8.577,
        8.572,
        8.569,
        8.563,
        8.558,
        8.553,
        8.545,
        8.542,
        8.542,
        8.534,
        8.536,
        8.533,
        8.532,
        8.526,
        8.523,
        8.512,
        8.505,
        8.5,
        8.496,
        8.489,
        8.479,
        8.471,
        8.464,
        8.459,
        8.455,
        8.45,
        8.442,
        8.436,
        8.426,
        8.413,
        8.411,
        8.401,
        8.396,
        8.389,
        8.381,
        8.37,
        8.367,
        8.361,
        8.352,
        8.343,
        8.341,
        8.341,
        8.334,
        8.339,
        8.332,
        8.317,
        8.315,
        8.309,
        8.306,
        8.296,
        8.295,
        8.284,
        8.273,
        8.266,
        8.257,
        8.254,
        8.252,
        8.246,
        8.239,
        8.233,
        8.228,
        8.223,
        8.217,
        8.208,
        8.19,
        8.185,
        8.183,
        8.175,
        8.173,
        8.158,
        8.16,
        8.155,
        8.153,
        8.147,
        8.145,
        8.144,
        8.133,
        8.128,
        8.121,
        8.114,
        8.112,
        8.109,
        8.117,
        8.089,
        8.079,
        8.078,
        8.071,
        8.064,
        8.059,
        8.047,
        8.049,
        8.04,
        8.029,
        8.019,
        8.012,
        8.006,
        7.995,
        7.989,
        7.984,
        7.975,
        7.972,
        7.961,
        7.946,
        7.924,
        7.937,
        7.938,
        7.928,
        7.916,
        7.908,
        7.893,
        7.893,
        7.881,
        7.873,
        7.869,
        7.863,
        7.859,
        7.845,
        7.841,
        7.832,
        7.82,
        7.811,
        7.804,
        7.801,
        7.8,
        7.791,
        7.786,
        7.782,
        7.78,
        7.783,
        7.78,
        7.781,
        7.764,
        7.759,
        7.754,
        7.744,
        7.739,
        7.732,
        7.733,
        7.726,
        7.719,
        7.71,
        7.705,
        7.698,
        7.697,
        7.69,
        7.683,
        7.682,
        7.67,
        7.658,
        7.643,
        7.629,
        7.624,
        7.626,
        7.624,
        7.616,
        7.612,
        7.599,
        7.591,
        7.573,
        7.564,
        7.557,
        7.553,
        7.549,
        7.542,
        7.532,
        7.524,
        7.516,
        7.502,
        7.498,
        7.488,
        7.473,
        7.469,
        7.455,
        7.444,
        7.432,
        7.427,
        7.422,
        7.422,
        7.412,
        7.406,
        7.403,
        7.405,
        7.399,
        7.397,
        7.393,
        7.382,
        7.379,
        7.378,
        7.373,
        7.364,
        7.368,
        7.372,
        7.368,
        7.376,
        7.369,
        7.367,
        7.359,
        7.351,
        7.344,
        7.343,
        7.346,
        7.336,
        7.328,
        7.33,
        7.326,
        7.316,
        7.311,
        7.303,
        7.301,
        7.296,
        7.295,
        7.292,
        7.287,
        7.285,
        7.271,
        7.266,
        7.259,
        7.251,
        7.245,
        7.238,
        7.229,
        7.222,
        7.22,
        7.214,
        7.206,
        7.2,
        7.203,
        7.204,
        7.199,
        7.19,
        7.184,
        7.176,
        7.163,
        7.16,
        7.153,
        7.151,
        7.15,
        7.138,
        7.133,
        7.128,
        7.124,
        7.118,
        7.112,
        7.102,
        7.088,
        7.079,
        7.065,
        7.061,
        7.052,
        7.05,
        7.045,
        7.043,
        7.039,
        7.037,
        7.025,
        7.023,
        7.017,
        7.007,
        7.007,
        6.997,
        6.994,
        6.989,
        6.984,
        6.976,
        6.977,
        6.979,
        6.979,
        6.985,
        6.976,
        6.981,
        6.979,
        6.976,
        6.973,
        6.971,
        6.972,
        6.98,
        6.975,
        6.971,
        6.971,
        6.974,
        6.988,
        6.991,
        7.003,
        7.003,
        7.009,
        7.006,
        7.004,
        7.004,
        6.999,
        7.003,
        6.996,
        6.997,
        6.999,
        6.997,
        6.999,
        6.996,
        6.994,
        6.992,
        6.996,
        7.001,
        7.009,
        7.007,
        7.008,
        7.004,
        7.011,
        7.015,
        7.016,
        7.022,
        7.022,
        7.023,
        7.022,
        7.031,
        7.034,
        7.036,
        7.044,
        7.049,
        7.059,
        7.062,
        7.074,
        7.079,
        7.079,
        7.072,
        7.075,
        7.073,
        7.069,
        7.063,
        7.068,
        7.08,
        7.079,
        7.085,
        7.083,
        7.088,
        7.089,
        7.089,
        7.093,
        7.092,
        7.096,
        7.093,
        7.097,
        7.092,
        7.093,
        7.095,
        7.104,
        7.111,
        7.12,
        7.124,
        7.128,
        7.124,
        7.119,
        7.121,
        7.122,
        7.124,
        7.119,
        7.118,
        7.117,
        7.114,
        7.119,
        7.118,
        7.12,
        7.123,
        7.12,
        7.122,
        7.126,
        7.127,
        7.122,
        7.123,
        7.124,
        7.127,
        7.129,
        7.127,
        7.125,
        7.125,
        7.128,
        7.129,
        7.13,
        7.127,
        7.128,
        7.123,
        7.115,
        7.115,
        7.103,
        7.102,
        7.092,
        7.084,
        7.07,
        7.06,
        7.043,
        7.029,
        7.014,
        6.994,
        6.975,
        6.96,
        6.933,
        6.907,
        6.877,
        6.839,
        6.808,
        6.768,
        6.733,
        6.697,
        6.641,
        6.603,
        6.55,
        6.5,
        6.445,
        6.391,
        6.343,
        6.291,
        6.244,
        6.2,
        6.166,
        6.133,
        6.106,
        6.094,
        6.081,
        6.078,
        6.083,
        6.09,
        6.098,
        6.112,
        6.123,
        6.155,
        6.169,
        6.199,
        6.216,
        6.234,
        6.263,
        6.279,
        6.304,
        6.33,
        6.354,
        6.366,
        6.387,
        6.404,
        6.416,
        6.432,
        6.445,
        6.458,
        6.47,
        6.478,
        6.482,
        6.492,
        6.489,
        6.499,
        6.5,
        6.508,
        6.515,
        6.513,
        6.528,
        6.536,
        6.54,
        6.545,
        6.554,
        6.559,
        6.561,
        6.57,
        6.578,
        6.584,
        6.585,
        6.591,
        6.594,
        6.601,
        6.603,
        6.612,
        6.611,
        6.61,
        6.611,
        6.614,
        6.623,
        6.616,
        6.612,
        6.606,
        6.603,
        6.602,
        6.6,
        6.603,
        6.595,
        6.584,
        6.575,
        6.57,
        6.561,
        6.559,
        6.546,
        6.54,
        6.538,
        6.531,
        6.532,
        6.531,
        6.529,
        6.525,
        6.524,
        6.522,
        6.52,
        6.513,
        6.509,
        6.503,
        6.49,
        6.489,
        6.482,
        6.478,
        6.473,
        6.472,
        6.462,
        6.458,
        6.447,
        6.432,
        6.43,
        6.427,
        6.418,
        6.397,
        6.379,
        6.368,
        6.359,
        6.355,
        6.346,
        6.335,
        6.324,
        6.319,
        6.305,
        6.293,
        6.288,
        6.281,
        6.271,
        6.264,
        6.259,
        6.25,
        6.245,
        6.231,
        6.216,
        6.203,
        6.203,
        6.201,
        6.193,
        6.184,
        6.169,
        6.163,
        6.158,
        6.155,
        6.147,
        6.134,
        6.132,
        6.122,
        6.11,
        6.101,
        6.094,
        6.086,
        6.088,
        6.074,
        6.062,
        6.047,
        6.045,
        6.038,
        6.026,
        6.015,
        5.996,
        5.991,
        5.983,
        5.968,
        5.955,
        5.943,
        5.935,
        5.92,
        5.908,
        5.896,
        5.878,
        5.863,
        5.848,
        5.831,
        5.824,
        5.814,
        5.799,
        5.772,
        5.746,
        5.73,
        5.708,
        5.693,
        5.669,
        5.649,
        5.634,
        5.609,
        5.588,
        5.563,
        5.549,
        5.526,
        5.511,
        5.496,
        5.479,
        5.463,
        5.436,
        5.416,
        5.394,
        5.381,
        5.364,
        5.353,
        5.341,
        5.336,
        5.323,
        5.307,
        5.285,
        5.269,
        5.259,
        5.241,
        5.235,
        5.219,
        5.207,
        5.189,
        5.172,
        5.151,
        5.13,
        5.115,
        5.085,
        5.074,
        5.054,
        5.049,
        5.026,
        4.999,
        4.973,
        4.949,
        4.92,
        4.886,
        4.846,
        4.799,
        4.757,
        4.713,
        4.68,
        4.638,
        4.585,
        4.535,
        4.481,
        4.432,
        4.385,
        4.351,
        4.289,
        4.229,
        4.164,
        4.105,
        4.047,
        3.983,
        3.929,
        3.864,
        3.808,
        3.757,
        3.707,
        3.656,
        3.615,
        3.558,
        3.523,
        3.493,
        3.442,
        3.397,
        3.333,
        3.286,
        3.227,
        3.178,
        3.123,
        3.065,
        3.019,
        2.964,
        2.921,
        2.863,
        2.827,
        2.777,
        2.718,
        2.674,
        2.631,
        2.559,
        2.493,
        2.432,
        2.363,
        2.321,
        2.266,
        2.228,
        2.162,
        2.088,
        2.029,
        1.972,
        1.921,
        1.842,
        1.772,
        1.691,
        1.62,
        1.532,
        1.463,
        1.389,
        1.314,
        1.239,
        1.153,
        1.066,
        0.938,
        0.83,
        0.709,
        0.612,
        0.492,
        0.388,
        0.317,
        0.208,
        0.105,
        -0.013,
        -0.111,
        -0.226,
        -0.336,
        -0.447,
        -0.522,
        -0.608,
        -0.728,
        -0.835,
        -0.971,
        -1.059,
        -1.142,
        -1.2,
        -1.301,
        -1.369,
        -1.456,
        -1.555,
        -1.652,
        -1.816,
        -1.923,
        -2.035,
        -2.162,
        -2.292,
        -2.386,
        -2.507,
        -2.667,
        -2.823,
        -2.968,
        -3.077,
        -3.251,
        -3.39,
        -3.58,
        -3.78,
        -4.007,
        -4.208,
        -4.442,
        -4.699,
        -4.94,
        -5.226,
        -5.461,
        -5.757,
        -6.041,
        -6.331,
        -6.642,
        -7.028,
        -7.411,
        -7.723,
        -8.15,
        -8.543,
        -8.971,
        -9.359,
        -9.811,
        -10.228,
        -10.71,
        -11.232,
        -11.73,
        -12.285,
        -12.81,
        -13.356,
        -13.845,
        -14.364,
        -14.886,
        -15.447,
        -16.073,
        -16.712,
        -17.435,
        -18.151,
        -19.028,
        -19.733,
        -20.593,
        -21.505,
        -22.502,
        -23.402,
        -23.927,
        -25.832,
        -29.509,
        -29.186,
        -32.72,
        -30.655,
        -32.701,
        -36.172,
        -37.658,
        -35.322
      ]
    ]
  },
  "variablesLabels": {
    "name": "Wavelength",
    "unit": "nm",
    "expectedMaxValue": 1097.04,
    "expectedMinValue": 188.45,
    "type": "Wavelenghts",
    "data": [
      [
        188.45,
        188.92,
        189.4,
        189.87,
        190.34,
        190.81,
        191.28,
        191.75,
        192.22,
        192.69,
        193.16,
        193.63,
        194.1,
        194.57,
        195.04,
        195.51,
        195.98,
        196.45,
        196.92,
        197.39,
        197.86,
        198.33,
        198.8,
        199.27,
        199.74,
        200.21,
        200.68,
        201.15,
        201.62,
        202.09,
        202.56,
        203.03,
        203.5,
        203.97,
        204.44,
        204.91,
        205.38,
        205.85,
        206.32,
        206.79,
        207.26,
        207.73,
        208.2,
        208.67,
        209.14,
        209.61,
        210.08,
        210.55,
        211.02,
        211.49,
        211.96,
        212.43,
        212.9,
        213.37,
        213.83,
        214.3,
        214.77,
        215.24,
        215.71,
        216.18,
        216.65,
        217.12,
        217.59,
        218.06,
        218.53,
        219.0,
        219.47,
        219.94,
        220.41,
        220.87,
        221.34,
        221.81,
        222.28,
        222.75,
        223.22,
        223.69,
        224.16,
        224.63,
        225.1,
        225.56,
        226.03,
        226.5,
        226.97,
        227.44,
        227.91,
        228.38,
        228.85,
        229.32,
        229.78,
        230.25,
        230.72,
        231.19,
        231.66,
        232.13,
        232.6,
        233.06,
        233.53,
        234.0,
        234.47,
        234.94,
        235.41,
        235.88,
        236.34,
        236.81,
        237.28,
        237.75,
        238.22,
        238.69,
        239.15,
        239.62,
        240.09,
        240.56,
        241.03,
        241.5,
        241.96,
        242.43,
        242.9,
        243.37,
        243.84,
        244.3,
        244.77,
        245.24,
        245.71,
        246.18,
        246.64,
        247.11,
        247.58,
        248.05,
        248.52,
        248.98,
        249.45,
        249.92,
        250.39,
        250.85,
        251.32,
        251.79,
        252.26,
        252.73,
        253.19,
        253.66,
        254.13,
        254.6,
        255.06,
        255.53,
        256.0,
        256.47,
        256.93,
        257.4,
        257.87,
        258.34,
        258.8,
        259.27,
        259.74,
        260.2,
        260.67,
        261.14,
        261.61,
        262.07,
        262.54,
        263.01,
        263.48,
        263.94,
        264.41,
        264.88,
        265.34,
        265.81,
        266.28,
        266.75,
        267.21,
        267.68,
        268.15,
        268.61,
        269.08,
        269.55,
        270.01,
        270.48,
        270.95,
        271.41,
        271.88,
        272.35,
        272.81,
        273.28,
        273.75,
        274.21,
        274.68,
        275.15,
        275.61,
        276.08,
        276.55,
        277.01,
        277.48,
        277.95,
        278.41,
        278.88,
        279.35,
        279.81,
        280.28,
        280.75,
        281.21,
        281.68,
        282.14,
        282.61,
        283.08,
        283.54,
        284.01,
        284.47,
        284.94,
        285.41,
        285.87,
        286.34,
        286.81,
        287.27,
        287.74,
        288.2,
        288.67,
        289.14,
        289.6,
        290.07,
        290.53,
        291.0,
        291.46,
        291.93,
        292.4,
        292.86,
        293.33,
        293.79,
        294.26,
        294.72,
        295.19,
        295.66,
        296.12,
        296.59,
        297.05,
        297.52,
        297.98,
        298.45,
        298.91,
        299.38,
        299.85,
        300.31,
        300.78,
        301.24,
        301.71,
        302.17,
        302.64,
        303.1,
        303.57,
        304.03,
        304.5,
        304.96,
        305.43,
        305.89,
        306.36,
        306.82,
        307.29,
        307.75,
        308.22,
        308.68,
        309.15,
        309.61,
        310.08,
        310.54,
        311.01,
        311.47,
        311.94,
        312.4,
        312.87,
        313.33,
        313.8,
        314.26,
        314.73,
        315.19,
        315.66,
        316.12,
        316.59,
        317.05,
        317.51,
        317.98,
        318.44,
        318.91,
        319.37,
        319.84,
        320.3,
        320.77,
        321.23,
        321.69,
        322.16,
        322.62,
        323.09,
        323.55,
        324.02,
        324.48,
        324.94,
        325.41,
        325.87,
        326.34,
        326.8,
        327.27,
        327.73,
        328.19,
        328.66,
        329.12,
        329.59,
        330.05,
        330.51,
        330.98,
        331.44,
        331.9,
        332.37,
        332.83,
        333.3,
        333.76,
        334.22,
        334.69,
        335.15,
        335.61,
        336.08,
        336.54,
        337.01,
        337.47,
        337.93,
        338.4,
        338.86,
        339.32,
        339.79,
        340.25,
        340.71,
        341.18,
        341.64,
        342.1,
        342.57,
        343.03,
        343.49,
        343.96,
        344.42,
        344.88,
        345.35,
        345.81,
        346.27,
        346.74,
        347.2,
        347.66,
        348.12,
        348.59,
        349.05,
        349.51,
        349.98,
        350.44,
        350.9,
        351.36,
        351.83,
        352.29,
        352.75,
        353.22,
        353.68,
        354.14,
        354.6,
        355.07,
        355.53,
        355.99,
        356.45,
        356.92,
        357.38,
        357.84,
        358.3,
        358.77,
        359.23,
        359.69,
        360.15,
        360.62,
        361.08,
        361.54,
        362.0,
        362.47,
        362.93,
        363.39,
        363.85,
        364.32,
        364.78,
        365.24,
        365.7,
        366.16,
        366.63,
        367.09,
        367.55,
        368.01,
        368.47,
        368.94,
        369.4,
        369.86,
        370.32,
        370.78,
        371.25,
        371.71,
        372.17,
        372.63,
        373.09,
        373.55,
        374.02,
        374.48,
        374.94,
        375.4,
        375.86,
        376.32,
        376.79,
        377.25,
        377.71,
        378.17,
        378.63,
        379.09,
        379.55,
        380.02,
        380.48,
        380.94,
        381.4,
        381.86,
        382.32,
        382.78,
        383.24,
        383.71,
        384.17,
        384.63,
        385.09,
        385.55,
        386.01,
        386.47,
        386.93,
        387.39,
        387.86,
        388.32,
        388.78,
        389.24,
        389.7,
        390.16,
        390.62,
        391.08,
        391.54,
        392.0,
        392.46,
        392.92,
        393.39,
        393.85,
        394.31,
        394.77,
        395.23,
        395.69,
        396.15,
        396.61,
        397.07,
        397.53,
        397.99,
        398.45,
        398.91,
        399.37,
        399.83,
        400.29,
        400.75,
        401.21,
        401.67,
        402.13,
        402.59,
        403.05,
        403.51,
        403.97,
        404.43,
        404.89,
        405.35,
        405.81,
        406.27,
        406.73,
        407.19,
        407.65,
        408.11,
        408.57,
        409.03,
        409.49,
        409.95,
        410.41,
        410.87,
        411.33,
        411.79,
        412.25,
        412.71,
        413.17,
        413.63,
        414.09,
        414.55,
        415.01,
        415.47,
        415.93,
        416.39,
        416.85,
        417.31,
        417.77,
        418.23,
        418.69,
        419.14,
        419.6,
        420.06,
        420.52,
        420.98,
        421.44,
        421.9,
        422.36,
        422.82,
        423.28,
        423.74,
        424.2,
        424.65,
        425.11,
        425.57,
        426.03,
        426.49,
        426.95,
        427.41,
        427.87,
        428.33,
        428.78,
        429.24,
        429.7,
        430.16,
        430.62,
        431.08,
        431.54,
        432.0,
        432.45,
        432.91,
        433.37,
        433.83,
        434.29,
        434.75,
        435.2,
        435.66,
        436.12,
        436.58,
        437.04,
        437.5,
        437.95,
        438.41,
        438.87,
        439.33,
        439.79,
        440.25,
        440.7,
        441.16,
        441.62,
        442.08,
        442.54,
        442.99,
        443.45,
        443.91,
        444.37,
        444.83,
        445.28,
        445.74,
        446.2,
        446.66,
        447.12,
        447.57,
        448.03,
        448.49,
        448.95,
        449.4,
        449.86,
        450.32,
        450.78,
        451.23,
        451.69,
        452.15,
        452.61,
        453.06,
        453.52,
        453.98,
        454.44,
        454.89,
        455.35,
        455.81,
        456.27,
        456.72,
        457.18,
        457.64,
        458.1,
        458.55,
        459.01,
        459.47,
        459.92,
        460.38,
        460.84,
        461.29,
        461.75,
        462.21,
        462.67,
        463.12,
        463.58,
        464.04,
        464.49,
        464.95,
        465.41,
        465.86,
        466.32,
        466.78,
        467.23,
        467.69,
        468.15,
        468.6,
        469.06,
        469.52,
        469.97,
        470.43,
        470.89,
        471.34,
        471.8,
        472.26,
        472.71,
        473.17,
        473.62,
        474.08,
        474.54,
        474.99,
        475.45,
        475.91,
        476.36,
        476.82,
        477.27,
        477.73,
        478.19,
        478.64,
        479.1,
        479.55,
        480.01,
        480.47,
        480.92,
        481.38,
        481.83,
        482.29,
        482.75,
        483.2,
        483.66,
        484.11,
        484.57,
        485.02,
        485.48,
        485.94,
        486.39,
        486.85,
        487.3,
        487.76,
        488.21,
        488.67,
        489.12,
        489.58,
        490.04,
        490.49,
        490.95,
        491.4,
        491.86,
        492.31,
        492.77,
        493.22,
        493.68,
        494.13,
        494.59,
        495.04,
        495.5,
        495.95,
        496.41,
        496.86,
        497.32,
        497.77,
        498.23,
        498.68,
        499.14,
        499.59,
        500.05,
        500.5,
        500.96,
        501.41,
        501.87,
        502.32,
        502.78,
        503.23,
        503.68,
        504.14,
        504.59,
        505.05,
        505.5,
        505.96,
        506.41,
        506.87,
        507.32,
        507.78,
        508.23,
        508.68,
        509.14,
        509.59,
        510.05,
        510.5,
        510.96,
        511.41,
        511.86,
        512.32,
        512.77,
        513.23,
        513.68,
        514.13,
        514.59,
        515.04,
        515.5,
        515.95,
        516.4,
        516.86,
        517.31,
        517.77,
        518.22,
        518.67,
        519.13,
        519.58,
        520.03,
        520.49,
        520.94,
        521.39,
        521.85,
        522.3,
        522.76,
        523.21,
        523.66,
        524.12,
        524.57,
        525.02,
        525.48,
        525.93,
        526.38,
        526.84,
        527.29,
        527.74,
        528.2,
        528.65,
        529.1,
        529.55,
        530.01,
        530.46,
        530.91,
        531.37,
        531.82,
        532.27,
        532.73,
        533.18,
        533.63,
        534.08,
        534.54,
        534.99,
        535.44,
        535.9,
        536.35,
        536.8,
        537.25,
        537.71,
        538.16,
        538.61,
        539.06,
        539.52,
        539.97,
        540.42,
        540.87,
        541.33,
        541.78,
        542.23,
        542.68,
        543.14,
        543.59,
        544.04,
        544.49,
        544.95,
        545.4,
        545.85,
        546.3,
        546.75,
        547.21,
        547.66,
        548.11,
        548.56,
        549.01,
        549.47,
        549.92,
        550.37,
        550.82,
        551.27,
        551.73,
        552.18,
        552.63,
        553.08,
        553.53,
        553.98,
        554.44,
        554.89,
        555.34,
        555.79,
        556.24,
        556.69,
        557.14,
        557.6,
        558.05,
        558.5,
        558.95,
        559.4,
        559.85,
        560.3,
        560.76,
        561.21,
        561.66,
        562.11,
        562.56,
        563.01,
        563.46,
        563.91,
        564.36,
        564.82,
        565.27,
        565.72,
        566.17,
        566.62,
        567.07,
        567.52,
        567.97,
        568.42,
        568.87,
        569.32,
        569.78,
        570.23,
        570.68,
        571.13,
        571.58,
        572.03,
        572.48,
        572.93,
        573.38,
        573.83,
        574.28,
        574.73,
        575.18,
        575.63,
        576.08,
        576.53,
        576.98,
        577.43,
        577.88,
        578.33,
        578.78,
        579.23,
        579.68,
        580.13,
        580.58,
        581.03,
        581.48,
        581.93,
        582.38,
        582.83,
        583.28,
        583.73,
        584.18,
        584.63,
        585.08,
        585.53,
        585.98,
        586.43,
        586.88,
        587.33,
        587.78,
        588.23,
        588.68,
        589.13,
        589.58,
        590.03,
        590.48,
        590.93,
        591.38,
        591.83,
        592.28,
        592.73,
        593.18,
        593.62,
        594.07,
        594.52,
        594.97,
        595.42,
        595.87,
        596.32,
        596.77,
        597.22,
        597.67,
        598.12,
        598.56,
        599.01,
        599.46,
        599.91,
        600.36,
        600.81,
        601.26,
        601.71,
        602.16,
        602.6,
        603.05,
        603.5,
        603.95,
        604.4,
        604.85,
        605.3,
        605.74,
        606.19,
        606.64,
        607.09,
        607.54,
        607.99,
        608.44,
        608.88,
        609.33,
        609.78,
        610.23,
        610.68,
        611.12,
        611.57,
        612.02,
        612.47,
        612.92,
        613.37,
        613.81,
        614.26,
        614.71,
        615.16,
        615.61,
        616.05,
        616.5,
        616.95,
        617.4,
        617.84,
        618.29,
        618.74,
        619.19,
        619.63,
        620.08,
        620.53,
        620.98,
        621.43,
        621.87,
        622.32,
        622.77,
        623.22,
        623.66,
        624.11,
        624.56,
        625.0,
        625.45,
        625.9,
        626.35,
        626.79,
        627.24,
        627.69,
        628.14,
        628.58,
        629.03,
        629.48,
        629.92,
        630.37,
        630.82,
        631.26,
        631.71,
        632.16,
        632.6,
        633.05,
        633.5,
        633.95,
        634.39,
        634.84,
        635.29,
        635.73,
        636.18,
        636.63,
        637.07,
        637.52,
        637.96,
        638.41,
        638.86,
        639.3,
        639.75,
        640.2,
        640.64,
        641.09,
        641.54,
        641.98,
        642.43,
        642.87,
        643.32,
        643.77,
        644.21,
        644.66,
        645.1,
        645.55,
        646.0,
        646.44,
        646.89,
        647.33,
        647.78,
        648.23,
        648.67,
        649.12,
        649.56,
        650.01,
        650.46,
        650.9,
        651.35,
        651.79,
        652.24,
        652.68,
        653.13,
        653.57,
        654.02,
        654.47,
        654.91,
        655.36,
        655.8,
        656.25,
        656.69,
        657.14,
        657.58,
        658.03,
        658.47,
        658.92,
        659.36,
        659.81,
        660.25,
        660.7,
        661.14,
        661.59,
        662.03,
        662.48,
        662.92,
        663.37,
        663.81,
        664.26,
        664.7,
        665.15,
        665.59,
        666.04,
        666.48,
        666.93,
        667.37,
        667.82,
        668.26,
        668.7,
        669.15,
        669.59,
        670.04,
        670.48,
        670.93,
        671.37,
        671.81,
        672.26,
        672.7,
        673.15,
        673.59,
        674.04,
        674.48,
        674.92,
        675.37,
        675.81,
        676.26,
        676.7,
        677.14,
        677.59,
        678.03,
        678.48,
        678.92,
        679.36,
        679.81,
        680.25,
        680.7,
        681.14,
        681.58,
        682.03,
        682.47,
        682.91,
        683.36,
        683.8,
        684.24,
        684.69,
        685.13,
        685.57,
        686.02,
        686.46,
        686.9,
        687.35,
        687.79,
        688.23,
        688.68,
        689.12,
        689.56,
        690.01,
        690.45,
        690.89,
        691.34,
        691.78,
        692.22,
        692.67,
        693.11,
        693.55,
        693.99,
        694.44,
        694.88,
        695.32,
        695.76,
        696.21,
        696.65,
        697.09,
        697.54,
        697.98,
        698.42,
        698.86,
        699.31,
        699.75,
        700.19,
        700.63,
        701.08,
        701.52,
        701.96,
        702.4,
        702.84,
        703.29,
        703.73,
        704.17,
        704.61,
        705.06,
        705.5,
        705.94,
        706.38,
        706.82,
        707.27,
        707.71,
        708.15,
        708.59,
        709.03,
        709.48,
        709.92,
        710.36,
        710.8,
        711.24,
        711.68,
        712.13,
        712.57,
        713.01,
        713.45,
        713.89,
        714.33,
        714.77,
        715.22,
        715.66,
        716.1,
        716.54,
        716.98,
        717.42,
        717.86,
        718.31,
        718.75,
        719.19,
        719.63,
        720.07,
        720.51,
        720.95,
        721.39,
        721.83,
        722.28,
        722.72,
        723.16,
        723.6,
        724.04,
        724.48,
        724.92,
        725.36,
        725.8,
        726.24,
        726.68,
        727.12,
        727.56,
        728.01,
        728.45,
        728.89,
        729.33,
        729.77,
        730.21,
        730.65,
        731.09,
        731.53,
        731.97,
        732.41,
        732.85,
        733.29,
        733.73,
        734.17,
        734.61,
        735.05,
        735.49,
        735.93,
        736.37,
        736.81,
        737.25,
        737.69,
        738.13,
        738.57,
        739.01,
        739.45,
        739.89,
        740.33,
        740.77,
        741.21,
        741.65,
        742.09,
        742.53,
        742.97,
        743.41,
        743.85,
        744.29,
        744.72,
        745.16,
        745.6,
        746.04,
        746.48,
        746.92,
        747.36,
        747.8,
        748.24,
        748.68,
        749.12,
        749.56,
        750.0,
        750.43,
        750.87,
        751.31,
        751.75,
        752.19,
        752.63,
        753.07,
        753.51,
        753.95,
        754.38,
        754.82,
        755.26,
        755.7,
        756.14,
        756.58,
        757.02,
        757.45,
        757.89,
        758.33,
        758.77,
        759.21,
        759.65,
        760.09,
        760.52,
        760.96,
        761.4,
        761.84,
        762.28,
        762.72,
        763.15,
        763.59,
        764.03,
        764.47,
        764.91,
        765.34,
        765.78,
        766.22,
        766.66,
        767.1,
        767.53,
        767.97,
        768.41,
        768.85,
        769.28,
        769.72,
        770.16,
        770.6,
        771.03,
        771.47,
        771.91,
        772.35,
        772.78,
        773.22,
        773.66,
        774.1,
        774.53,
        774.97,
        775.41,
        775.85,
        776.28,
        776.72,
        777.16,
        777.6,
        778.03,
        778.47,
        778.91,
        779.34,
        779.78,
        780.22,
        780.65,
        781.09,
        781.53,
        781.96,
        782.4,
        782.84,
        783.28,
        783.71,
        784.15,
        784.59,
        785.02,
        785.46,
        785.89,
        786.33,
        786.77,
        787.2,
        787.64,
        788.08,
        788.51,
        788.95,
        789.39,
        789.82,
        790.26,
        790.69,
        791.13,
        791.57,
        792.0,
        792.44,
        792.88,
        793.31,
        793.75,
        794.18,
        794.62,
        795.06,
        795.49,
        795.93,
        796.36,
        796.8,
        797.23,
        797.67,
        798.11,
        798.54,
        798.98,
        799.41,
        799.85,
        800.28,
        800.72,
        801.15,
        801.59,
        802.03,
        802.46,
        802.9,
        803.33,
        803.77,
        804.2,
        804.64,
        805.07,
        805.51,
        805.94,
        806.38,
        806.81,
        807.25,
        807.68,
        808.12,
        808.55,
        808.99,
        809.42,
        809.86,
        810.29,
        810.73,
        811.16,
        811.6,
        812.03,
        812.47,
        812.9,
        813.33,
        813.77,
        814.2,
        814.64,
        815.07,
        815.51,
        815.94,
        816.38,
        816.81,
        817.24,
        817.68,
        818.11,
        818.55,
        818.98,
        819.42,
        819.85,
        820.28,
        820.72,
        821.15,
        821.59,
        822.02,
        822.45,
        822.89,
        823.32,
        823.76,
        824.19,
        824.62,
        825.06,
        825.49,
        825.92,
        826.36,
        826.79,
        827.22,
        827.66,
        828.09,
        828.53,
        828.96,
        829.39,
        829.83,
        830.26,
        830.69,
        831.13,
        831.56,
        831.99,
        832.43,
        832.86,
        833.29,
        833.72,
        834.16,
        834.59,
        835.02,
        835.46,
        835.89,
        836.32,
        836.76,
        837.19,
        837.62,
        838.05,
        838.49,
        838.92,
        839.35,
        839.78,
        840.22,
        840.65,
        841.08,
        841.51,
        841.95,
        842.38,
        842.81,
        843.24,
        843.68,
        844.11,
        844.54,
        844.97,
        845.41,
        845.84,
        846.27,
        846.7,
        847.13,
        847.57,
        848.0,
        848.43,
        848.86,
        849.29,
        849.73,
        850.16,
        850.59,
        851.02,
        851.45,
        851.89,
        852.32,
        852.75,
        853.18,
        853.61,
        854.04,
        854.48,
        854.91,
        855.34,
        855.77,
        856.2,
        856.63,
        857.06,
        857.5,
        857.93,
        858.36,
        858.79,
        859.22,
        859.65,
        860.08,
        860.51,
        860.95,
        861.38,
        861.81,
        862.24,
        862.67,
        863.1,
        863.53,
        863.96,
        864.39,
        864.82,
        865.25,
        865.68,
        866.12,
        866.55,
        866.98,
        867.41,
        867.84,
        868.27,
        868.7,
        869.13,
        869.56,
        869.99,
        870.42,
        870.85,
        871.28,
        871.71,
        872.14,
        872.57,
        873.0,
        873.43,
        873.86,
        874.29,
        874.72,
        875.15,
        875.58,
        876.01,
        876.44,
        876.87,
        877.3,
        877.73,
        878.16,
        878.59,
        879.02,
        879.45,
        879.88,
        880.31,
        880.74,
        881.17,
        881.6,
        882.03,
        882.46,
        882.89,
        883.32,
        883.75,
        884.17,
        884.6,
        885.03,
        885.46,
        885.89,
        886.32,
        886.75,
        887.18,
        887.61,
        888.04,
        888.47,
        888.9,
        889.32,
        889.75,
        890.18,
        890.61,
        891.04,
        891.47,
        891.9,
        892.33,
        892.75,
        893.18,
        893.61,
        894.04,
        894.47,
        894.9,
        895.33,
        895.75,
        896.18,
        896.61,
        897.04,
        897.47,
        897.9,
        898.32,
        898.75,
        899.18,
        899.61,
        900.04,
        900.46,
        900.89,
        901.32,
        901.75,
        902.18,
        902.6,
        903.03,
        903.46,
        903.89,
        904.32,
        904.74,
        905.17,
        905.6,
        906.03,
        906.45,
        906.88,
        907.31,
        907.74,
        908.16,
        908.59,
        909.02,
        909.45,
        909.87,
        910.3,
        910.73,
        911.16,
        911.58,
        912.01,
        912.44,
        912.86,
        913.29,
        913.72,
        914.15,
        914.57,
        915.0,
        915.43,
        915.85,
        916.28,
        916.71,
        917.13,
        917.56,
        917.99,
        918.41,
        918.84,
        919.27,
        919.69,
        920.12,
        920.55,
        920.97,
        921.4,
        921.83,
        922.25,
        922.68,
        923.1,
        923.53,
        923.96,
        924.38,
        924.81,
        925.24,
        925.66,
        926.09,
        926.51,
        926.94,
        927.37,
        927.79,
        928.22,
        928.64,
        929.07,
        929.5,
        929.92,
        930.35,
        930.77,
        931.2,
        931.62,
        932.05,
        932.47,
        932.9,
        933.33,
        933.75,
        934.18,
        934.6,
        935.03,
        935.45,
        935.88,
        936.3,
        936.73,
        937.15,
        937.58,
        938.0,
        938.43,
        938.85,
        939.28,
        939.7,
        940.13,
        940.55,
        940.98,
        941.4,
        941.83,
        942.25,
        942.68,
        943.1,
        943.53,
        943.95,
        944.38,
        944.8,
        945.23,
        945.65,
        946.08,
        946.5,
        946.92,
        947.35,
        947.77,
        948.2,
        948.62,
        949.05,
        949.47,
        949.89,
        950.32,
        950.74,
        951.17,
        951.59,
        952.01,
        952.44,
        952.86,
        953.29,
        953.71,
        954.13,
        954.56,
        954.98,
        955.41,
        955.83,
        956.25,
        956.68,
        957.1,
        957.52,
        957.95,
        958.37,
        958.79,
        959.22,
        959.64,
        960.06,
        960.49,
        960.91,
        961.33,
        961.76,
        962.18,
        962.6,
        963.03,
        963.45,
        963.87,
        964.3,
        964.72,
        965.14,
        965.56,
        965.99,
        966.41,
        966.83,
        967.26,
        967.68,
        968.1,
        968.52,
        968.95,
        969.37,
        969.79,
        970.21,
        970.64,
        971.06,
        971.48,
        971.9,
        972.33,
        972.75,
        973.17,
        973.59,
        974.02,
        974.44,
        974.86,
        975.28,
        975.7,
        976.13,
        976.55,
        976.97,
        977.39,
        977.81,
        978.24,
        978.66,
        979.08,
        979.5,
        979.92,
        980.35,
        980.77,
        981.19,
        981.61,
        982.03,
        982.45,
        982.87,
        983.3,
        983.72,
        984.14,
        984.56,
        984.98,
        985.4,
        985.82,
        986.25,
        986.67,
        987.09,
        987.51,
        987.93,
        988.35,
        988.77,
        989.19,
        989.61,
        990.04,
        990.46,
        990.88,
        991.3,
        991.72,
        992.14,
        992.56,
        992.98,
        993.4,
        993.82,
        994.24,
        994.66,
        995.08,
        995.5,
        995.92,
        996.34,
        996.77,
        997.19,
        997.61,
        998.03,
        998.45,
        998.87,
        999.29,
        999.71,
        1000.13,
        1000.55,
        1000.97,
        1001.39,
        1001.81,
        1002.23,
        1002.65,
        1003.07,
        1003.49,
        1003.91,
        1004.33,
        1004.75,
        1005.17,
        1005.58,
        1006.0,
        1006.42,
        1006.84,
        1007.26,
        1007.68,
        1008.1,
        1008.52,
        1008.94,
        1009.36,
        1009.78,
        1010.2,
        1010.62,
        1011.04,
        1011.46,
        1011.88,
        1012.29,
        1012.71,
        1013.13,
        1013.55,
        1013.97,
        1014.39,
        1014.81,
        1015.23,
        1015.65,
        1016.06,
        1016.48,
        1016.9,
        1017.32,
        1017.74,
        1018.16,
        1018.58,
        1018.99,
        1019.41,
        1019.83,
        1020.25,
        1020.67,
        1021.09,
        1021.51,
        1021.92,
        1022.34,
        1022.76,
        1023.18,
        1023.6,
        1024.01,
        1024.43,
        1024.85,
        1025.27,
        1025.69,
        1026.1,
        1026.52,
        1026.94,
        1027.36,
        1027.78,
        1028.19,
        1028.61,
        1029.03,
        1029.45,
        1029.86,
        1030.28,
        1030.7,
        1031.12,
        1031.53,
        1031.95,
        1032.37,
        1032.79,
        1033.2,
        1033.62,
        1034.04,
        1034.45,
        1034.87,
        1035.29,
        1035.71,
        1036.12,
        1036.54,
        1036.96,
        1037.37,
        1037.79,
        1038.21,
        1038.62,
        1039.04,
        1039.46,
        1039.88,
        1040.29,
        1040.71,
        1041.13,
        1041.54,
        1041.96,
        1042.37,
        1042.79,
        1043.21,
        1043.62,
        1044.04,
        1044.46,
        1044.87,
        1045.29,
        1045.71,
        1046.12,
        1046.54,
        1046.95,
        1047.37,
        1047.79,
        1048.2,
        1048.62,
        1049.03,
        1049.45,
        1049.87,
        1050.28,
        1050.7,
        1051.11,
        1051.53,
        1051.95,
        1052.36,
        1052.78,
        1053.19,
        1053.61,
        1054.02,
        1054.44,
        1054.85,
        1055.27,
        1055.68,
        1056.1,
        1056.52,
        1056.93,
        1057.35,
        1057.76,
        1058.18,
        1058.59,
        1059.01,
        1059.42,
        1059.84,
        1060.25,
        1060.67,
        1061.08,
        1061.5,
        1061.91,
        1062.33,
        1062.74,
        1063.16,
        1063.57,
        1063.99,
        1064.4,
        1064.81,
        1065.23,
        1065.64,
        1066.06,
        1066.47,
        1066.89,
        1067.3,
        1067.72,
        1068.13,
        1068.54,
        1068.96,
        1069.37,
        1069.79,
        1070.2,
        1070.61,
        1071.03,
        1071.44,
        1071.86,
        1072.27,
        1072.68,
        1073.1,
        1073.51,
        1073.93,
        1074.34,
        1074.75,
        1075.17,
        1075.58,
        1075.99,
        1076.41,
        1076.82,
        1077.24,
        1077.65,
        1078.06,
        1078.48,
        1078.89,
        1079.3,
        1079.72,
        1080.13,
        1080.54,
        1080.96,
        1081.37,
        1081.78,
        1082.19,
        1082.61,
        1083.02,
        1083.43,
        1083.85,
        1084.26,
        1084.67,
        1085.08,
        1085.5,
        1085.91,
        1086.32,
        1086.74,
        1087.15,
        1087.56,
        1087.97,
        1088.39,
        1088.8,
        1089.21,
        1089.62,
        1090.04,
        1090.45,
        1090.86,
        1091.27,
        1091.68,
        1092.1,
        1092.51,
        1092.92,
        1093.33,
        1093.75,
        1094.16,
        1094.57,
        1094.98,
        1095.39,
        1095.81,
        1096.22,
        1096.63,
        1097.04
      ]
    ]
  },
  "originalValues": null,
  "background": {
    "type": "Counts",
    "expectedMaxValue": 100.0,
    "expectedMinValue": 0.0,
    "unit": "arbitrary unit",
    "data": [
      [
        0.0,
        105.46,
        106.22,
        107.38,
        108.54,
        110.36,
        111.38,
        112.54,
        113.68,
        114.42,
        114.7,
        115.56,
        115.44,
        115.4,
        115.3,
        115.7,
        115.92,
        116.0,
        115.02,
        115.46,
        115.26,
        114.54,
        114.82,
        115.92,
        115.16,
        114.86,
        115.181,
        115.21,
        115.236,
        115.307,
        115.319,
        115.341,
        115.421,
        115.48,
        115.467,
        115.521,
        115.585,
        115.683,
        115.773,
        115.857,
        115.908,
        115.957,
        115.997,
        116.087,
        116.174,
        116.271,
        116.314,
        116.39,
        116.379,
        116.383,
        116.37,
        116.418,
        116.47,
        116.5,
        116.519,
        116.6,
        116.67,
        116.727,
        116.712,
        116.681,
        116.659,
        116.68,
        116.706,
        116.74,
        116.752,
        116.797,
        116.79,
        116.798,
        116.826,
        116.857,
        116.847,
        116.863,
        116.854,
        116.832,
        116.79,
        116.788,
        116.742,
        116.703,
        116.648,
        116.639,
        116.63,
        116.624,
        116.582,
        116.549,
        116.52,
        116.529,
        116.478,
        116.461,
        116.45,
        116.387,
        116.362,
        116.359,
        116.343,
        116.32,
        116.317,
        116.332,
        116.306,
        116.268,
        116.18,
        116.151,
        116.091,
        116.056,
        115.999,
        115.962,
        115.908,
        115.836,
        115.732,
        115.708,
        115.672,
        115.618,
        115.564,
        115.505,
        115.445,
        115.398,
        115.344,
        115.305,
        115.228,
        115.147,
        115.097,
        115.083,
        115.047,
        115.049,
        115.013,
        115.017,
        114.964,
        114.956,
        114.953,
        114.938,
        114.874,
        114.828,
        114.768,
        114.748,
        114.69,
        114.65,
        114.592,
        114.559,
        114.528,
        114.533,
        114.512,
        114.482,
        114.447,
        114.408,
        114.373,
        114.39,
        114.363,
        114.385,
        114.362,
        114.375,
        114.392,
        114.405,
        114.411,
        114.464,
        114.489,
        114.53,
        114.576,
        114.614,
        114.626,
        114.618,
        114.604,
        114.671,
        114.71,
        114.74,
        114.755,
        114.77,
        114.759,
        114.778,
        114.792,
        114.829,
        114.842,
        114.85,
        114.859,
        114.882,
        114.873,
        114.871,
        114.87,
        114.871,
        114.871,
        114.905,
        114.93,
        114.995,
        115.007,
        115.05,
        115.1,
        115.185,
        115.222,
        115.247,
        115.27,
        115.286,
        115.27,
        115.271,
        115.282,
        115.321,
        115.311,
        115.323,
        115.352,
        115.39,
        115.383,
        115.412,
        115.409,
        115.419,
        115.394,
        115.416,
        115.415,
        115.409,
        115.385,
        115.398,
        115.393,
        115.371,
        115.337,
        115.338,
        115.329,
        115.331,
        115.303,
        115.312,
        115.303,
        115.29,
        115.244,
        115.23,
        115.172,
        115.161,
        115.133,
        115.137,
        115.093,
        115.071,
        115.042,
        114.995,
        114.911,
        114.914,
        114.89,
        114.914,
        114.873,
        114.866,
        114.842,
        114.847,
        114.821,
        114.804,
        114.786,
        114.805,
        114.799,
        114.804,
        114.77,
        114.754,
        114.724,
        114.722,
        114.684,
        114.647,
        114.644,
        114.679,
        114.651,
        114.654,
        114.608,
        114.625,
        114.61,
        114.633,
        114.633,
        114.648,
        114.67,
        114.679,
        114.676,
        114.725,
        114.792,
        114.841,
        114.833,
        114.81,
        114.793,
        114.835,
        114.861,
        114.882,
        114.896,
        114.913,
        114.934,
        114.981,
        114.979,
        115.006,
        114.992,
        115.004,
        115.011,
        115.008,
        115.0,
        115.01,
        114.974,
        114.938,
        114.912,
        114.934,
        114.976,
        115.006,
        114.973,
        114.99,
        114.983,
        114.996,
        114.987,
        115.003,
        115.015,
        115.074,
        115.069,
        115.086,
        115.077,
        115.083,
        115.099,
        115.119,
        115.103,
        115.111,
        115.126,
        115.182,
        115.258,
        115.313,
        115.331,
        115.385,
        115.377,
        115.397,
        115.402,
        115.443,
        115.433,
        115.458,
        115.454,
        115.469,
        115.462,
        115.462,
        115.453,
        115.434,
        115.419,
        115.438,
        115.428,
        115.434,
        115.41,
        115.37,
        115.33,
        115.355,
        115.347,
        115.383,
        115.369,
        115.374,
        115.369,
        115.39,
        115.35,
        115.346,
        115.334,
        115.336,
        115.326,
        115.31,
        115.289,
        115.273,
        115.262,
        115.282,
        115.277,
        115.278,
        115.235,
        115.225,
        115.183,
        115.171,
        115.118,
        115.105,
        115.078,
        115.051,
        115.009,
        115.029,
        115.021,
        115.055,
        115.05,
        115.058,
        115.103,
        115.153,
        115.172,
        115.193,
        115.19,
        115.172,
        115.158,
        115.19,
        115.183,
        115.195,
        115.199,
        115.25,
        115.284,
        115.301,
        115.311,
        115.332,
        115.295,
        115.271,
        115.233,
        115.236,
        115.242,
        115.24,
        115.232,
        115.271,
        115.274,
        115.289,
        115.295,
        115.333,
        115.34,
        115.341,
        115.3,
        115.281,
        115.293,
        115.334,
        115.36,
        115.393,
        115.422,
        115.489,
        115.504,
        115.494,
        115.491,
        115.512,
        115.489,
        115.509,
        115.47,
        115.463,
        115.442,
        115.461,
        115.444,
        115.448,
        115.448,
        115.501,
        115.539,
        115.512,
        115.461,
        115.429,
        115.407,
        115.395,
        115.375,
        115.399,
        115.457,
        115.51,
        115.498,
        115.496,
        115.465,
        115.488,
        115.488,
        115.512,
        115.487,
        115.484,
        115.465,
        115.476,
        115.494,
        115.501,
        115.521,
        115.559,
        115.593,
        115.596,
        115.595,
        115.588,
        115.582,
        115.57,
        115.517,
        115.523,
        115.528,
        115.543,
        115.546,
        115.552,
        115.55,
        115.575,
        115.571,
        115.592,
        115.595,
        115.559,
        115.54,
        115.527,
        115.492,
        115.481,
        115.47,
        115.496,
        115.531,
        115.549,
        115.53,
        115.543,
        115.531,
        115.602,
        115.626,
        115.625,
        115.621,
        115.614,
        115.602,
        115.596,
        115.573,
        115.561,
        115.551,
        115.563,
        115.572,
        115.596,
        115.604,
        115.61,
        115.584,
        115.553,
        115.499,
        115.507,
        115.527,
        115.545,
        115.494,
        115.466,
        115.462,
        115.465,
        115.498,
        115.555,
        115.597,
        115.628,
        115.627,
        115.639,
        115.637,
        115.672,
        115.637,
        115.598,
        115.584,
        115.582,
        115.565,
        115.615,
        115.616,
        115.582,
        115.535,
        115.507,
        115.511,
        115.499,
        115.49,
        115.445,
        115.382,
        115.325,
        115.284,
        115.301,
        115.327,
        115.353,
        115.305,
        115.325,
        115.314,
        115.3,
        115.295,
        115.324,
        115.301,
        115.295,
        115.292,
        115.319,
        115.324,
        115.3,
        115.279,
        115.268,
        115.276,
        115.301,
        115.322,
        115.339,
        115.331,
        115.311,
        115.276,
        115.294,
        115.306,
        115.335,
        115.342,
        115.359,
        115.342,
        115.356,
        115.378,
        115.441,
        115.468,
        115.492,
        115.502,
        115.513,
        115.55,
        115.547,
        115.534,
        115.565,
        115.579,
        115.574,
        115.545,
        115.546,
        115.532,
        115.546,
        115.556,
        115.581,
        115.566,
        115.555,
        115.53,
        115.527,
        115.492,
        115.48,
        115.475,
        115.487,
        115.491,
        115.481,
        115.453,
        115.439,
        115.41,
        115.416,
        115.413,
        115.45,
        115.446,
        115.456,
        115.423,
        115.42,
        115.417,
        115.415,
        115.392,
        115.414,
        115.392,
        115.368,
        115.35,
        115.347,
        115.354,
        115.372,
        115.35,
        115.411,
        115.429,
        115.457,
        115.438,
        115.446,
        115.429,
        115.428,
        115.412,
        115.424,
        115.425,
        115.446,
        115.448,
        115.47,
        115.455,
        115.474,
        115.479,
        115.495,
        115.484,
        115.461,
        115.437,
        115.446,
        115.388,
        115.375,
        115.322,
        115.345,
        115.359,
        115.363,
        115.351,
        115.365,
        115.35,
        115.355,
        115.347,
        115.355,
        115.376,
        115.431,
        115.434,
        115.448,
        115.41,
        115.426,
        115.418,
        115.425,
        115.423,
        115.457,
        115.499,
        115.562,
        115.57,
        115.563,
        115.541,
        115.548,
        115.542,
        115.549,
        115.525,
        115.513,
        115.49,
        115.49,
        115.433,
        115.44,
        115.427,
        115.47,
        115.48,
        115.511,
        115.517,
        115.529,
        115.517,
        115.489,
        115.464,
        115.45,
        115.447,
        115.49,
        115.505,
        115.505,
        115.506,
        115.516,
        115.504,
        115.517,
        115.495,
        115.501,
        115.47,
        115.497,
        115.48,
        115.473,
        115.487,
        115.506,
        115.516,
        115.544,
        115.548,
        115.54,
        115.538,
        115.551,
        115.547,
        115.551,
        115.53,
        115.539,
        115.551,
        115.606,
        115.61,
        115.64,
        115.644,
        115.667,
        115.632,
        115.646,
        115.67,
        115.669,
        115.67,
        115.665,
        115.649,
        115.662,
        115.664,
        115.649,
        115.631,
        115.641,
        115.616,
        115.636,
        115.625,
        115.61,
        115.557,
        115.549,
        115.526,
        115.515,
        115.483,
        115.508,
        115.546,
        115.553,
        115.542,
        115.534,
        115.545,
        115.536,
        115.493,
        115.487,
        115.512,
        115.55,
        115.551,
        115.586,
        115.589,
        115.607,
        115.619,
        115.629,
        115.624,
        115.616,
        115.617,
        115.629,
        115.623,
        115.592,
        115.555,
        115.583,
        115.585,
        115.588,
        115.599,
        115.667,
        115.72,
        115.745,
        115.729,
        115.734,
        115.722,
        115.723,
        115.713,
        115.715,
        115.721,
        115.742,
        115.749,
        115.757,
        115.757,
        115.731,
        115.71,
        115.718,
        115.683,
        115.679,
        115.626,
        115.61,
        115.56,
        115.514,
        115.492,
        115.518,
        115.5,
        115.511,
        115.493,
        115.507,
        115.519,
        115.521,
        115.524,
        115.525,
        115.512,
        115.503,
        115.513,
        115.527,
        115.518,
        115.509,
        115.469,
        115.527,
        115.54,
        115.567,
        115.539,
        115.526,
        115.486,
        115.468,
        115.428,
        115.435,
        115.444,
        115.442,
        115.425,
        115.424,
        115.442,
        115.455,
        115.453,
        115.46,
        115.469,
        115.462,
        115.438,
        115.476,
        115.482,
        115.517,
        115.521,
        115.56,
        115.562,
        115.584,
        115.611,
        115.645,
        115.661,
        115.635,
        115.606,
        115.624,
        115.641,
        115.655,
        115.653,
        115.69,
        115.729,
        115.747,
        115.768,
        115.81,
        115.806,
        115.786,
        115.742,
        115.735,
        115.741,
        115.753,
        115.738,
        115.75,
        115.761,
        115.776,
        115.758,
        115.769,
        115.771,
        115.756,
        115.739,
        115.774,
        115.787,
        115.79,
        115.762,
        115.752,
        115.756,
        115.779,
        115.764,
        115.79,
        115.806,
        115.802,
        115.775,
        115.795,
        115.779,
        115.772,
        115.741,
        115.789,
        115.796,
        115.812,
        115.807,
        115.829,
        115.828,
        115.81,
        115.781,
        115.79,
        115.817,
        115.829,
        115.79,
        115.805,
        115.785,
        115.767,
        115.749,
        115.753,
        115.734,
        115.709,
        115.666,
        115.672,
        115.658,
        115.691,
        115.68,
        115.653,
        115.607,
        115.575,
        115.55,
        115.566,
        115.591,
        115.601,
        115.578,
        115.64,
        115.658,
        115.675,
        115.679,
        115.717,
        115.74,
        115.738,
        115.74,
        115.76,
        115.75,
        115.739,
        115.685,
        115.705,
        115.711,
        115.74,
        115.757,
        115.806,
        115.796,
        115.773,
        115.729,
        115.731,
        115.69,
        115.681,
        115.691,
        115.695,
        115.67,
        115.67,
        115.665,
        115.693,
        115.707,
        115.711,
        115.706,
        115.731,
        115.728,
        115.77,
        115.754,
        115.757,
        115.735,
        115.747,
        115.734,
        115.741,
        115.739,
        115.753,
        115.734,
        115.709,
        115.679,
        115.685,
        115.666,
        115.658,
        115.641,
        115.648,
        115.636,
        115.648,
        115.654,
        115.65,
        115.628,
        115.631,
        115.623,
        115.638,
        115.601,
        115.597,
        115.604,
        115.629,
        115.633,
        115.641,
        115.646,
        115.65,
        115.59,
        115.582,
        115.589,
        115.623,
        115.61,
        115.618,
        115.585,
        115.563,
        115.532,
        115.515,
        115.525,
        115.531,
        115.483,
        115.494,
        115.495,
        115.513,
        115.496,
        115.487,
        115.472,
        115.477,
        115.484,
        115.552,
        115.57,
        115.604,
        115.558,
        115.552,
        115.564,
        115.595,
        115.59,
        115.585,
        115.599,
        115.615,
        115.607,
        115.647,
        115.69,
        115.716,
        115.71,
        115.712,
        115.696,
        115.709,
        115.675,
        115.697,
        115.67,
        115.647,
        115.595,
        115.615,
        115.621,
        115.628,
        115.636,
        115.673,
        115.694,
        115.697,
        115.682,
        115.71,
        115.703,
        115.677,
        115.633,
        115.59,
        115.586,
        115.612,
        115.589,
        115.607,
        115.581,
        115.609,
        115.63,
        115.654,
        115.642,
        115.654,
        115.65,
        115.659,
        115.625,
        115.606,
        115.575,
        115.57,
        115.514,
        115.48,
        115.432,
        115.464,
        115.502,
        115.523,
        115.498,
        115.519,
        115.526,
        115.534,
        115.532,
        115.538,
        115.529,
        115.554,
        115.537,
        115.521,
        115.487,
        115.509,
        115.516,
        115.568,
        115.583,
        115.61,
        115.624,
        115.664,
        115.653,
        115.664,
        115.661,
        115.684,
        115.67,
        115.645,
        115.593,
        115.576,
        115.556,
        115.556,
        115.526,
        115.538,
        115.57,
        115.611,
        115.59,
        115.603,
        115.557,
        115.519,
        115.483,
        115.469,
        115.448,
        115.441,
        115.41,
        115.419,
        115.406,
        115.444,
        115.464,
        115.51,
        115.507,
        115.504,
        115.49,
        115.496,
        115.51,
        115.516,
        115.471,
        115.467,
        115.454,
        115.47,
        115.456,
        115.483,
        115.503,
        115.527,
        115.551,
        115.552,
        115.505,
        115.51,
        115.478,
        115.504,
        115.527,
        115.539,
        115.536,
        115.52,
        115.518,
        115.503,
        115.452,
        115.449,
        115.43,
        115.406,
        115.402,
        115.403,
        115.385,
        115.408,
        115.394,
        115.415,
        115.462,
        115.507,
        115.51,
        115.531,
        115.506,
        115.479,
        115.441,
        115.429,
        115.434,
        115.423,
        115.408,
        115.45,
        115.49,
        115.544,
        115.568,
        115.595,
        115.654,
        115.683,
        115.686,
        115.725,
        115.697,
        115.663,
        115.638,
        115.628,
        115.644,
        115.66,
        115.672,
        115.718,
        115.752,
        115.797,
        115.821,
        115.836,
        115.83,
        115.836,
        115.823,
        115.86,
        115.857,
        115.848,
        115.849,
        115.817,
        115.762,
        115.761,
        115.799,
        115.838,
        115.882,
        115.887,
        115.884,
        115.902,
        115.887,
        115.875,
        115.856,
        115.851,
        115.84,
        115.825,
        115.773,
        115.755,
        115.729,
        115.727,
        115.723,
        115.73,
        115.743,
        115.77,
        115.773,
        115.731,
        115.691,
        115.673,
        115.646,
        115.65,
        115.63,
        115.642,
        115.643,
        115.671,
        115.645,
        115.651,
        115.649,
        115.683,
        115.685,
        115.667,
        115.642,
        115.648,
        115.653,
        115.663,
        115.633,
        115.628,
        115.653,
        115.658,
        115.612,
        115.593,
        115.577,
        115.583,
        115.573,
        115.577,
        115.569,
        115.594,
        115.61,
        115.642,
        115.61,
        115.62,
        115.652,
        115.686,
        115.666,
        115.65,
        115.63,
        115.66,
        115.676,
        115.662,
        115.644,
        115.655,
        115.65,
        115.665,
        115.642,
        115.634,
        115.613,
        115.592,
        115.594,
        115.569,
        115.545,
        115.576,
        115.568,
        115.54,
        115.503,
        115.521,
        115.504,
        115.501,
        115.499,
        115.482,
        115.457,
        115.466,
        115.48,
        115.504,
        115.488,
        115.512,
        115.516,
        115.542,
        115.548,
        115.555,
        115.588,
        115.599,
        115.598,
        115.593,
        115.597,
        115.638,
        115.604,
        115.598,
        115.635,
        115.66,
        115.647,
        115.699,
        115.726,
        115.735,
        115.721,
        115.726,
        115.741,
        115.763,
        115.752,
        115.749,
        115.734,
        115.705,
        115.663,
        115.655,
        115.649,
        115.664,
        115.64,
        115.644,
        115.669,
        115.657,
        115.594,
        115.599,
        115.557,
        115.547,
        115.537,
        115.568,
        115.57,
        115.568,
        115.536,
        115.532,
        115.537,
        115.541,
        115.544,
        115.564,
        115.555,
        115.578,
        115.555,
        115.55,
        115.578,
        115.577,
        115.565,
        115.643,
        115.691,
        115.73,
        115.731,
        115.729,
        115.707,
        115.693,
        115.671,
        115.659,
        115.646,
        115.666,
        115.682,
        115.706,
        115.722,
        115.764,
        115.781,
        115.812,
        115.832,
        115.823,
        115.819,
        115.825,
        115.788,
        115.756,
        115.759,
        115.77,
        115.769,
        115.757,
        115.767,
        115.785,
        115.794,
        115.813,
        115.782,
        115.787,
        115.769,
        115.779,
        115.74,
        115.733,
        115.727,
        115.721,
        115.708,
        115.708,
        115.696,
        115.693,
        115.685,
        115.682,
        115.688,
        115.702,
        116.203,
        116.457,
        116.494,
        116.515,
        116.534,
        116.57,
        116.547,
        116.551,
        116.536,
        116.569,
        116.572,
        116.575,
        116.552,
        116.56,
        116.55,
        116.554,
        116.573,
        116.585,
        116.563,
        116.539,
        116.541,
        116.075,
        115.828,
        115.805,
        115.821,
        115.842,
        115.837,
        115.852,
        115.816,
        115.822,
        115.805,
        115.802,
        115.783,
        115.782,
        115.76,
        115.758,
        115.757,
        115.744,
        115.723,
        115.709,
        115.678,
        115.648,
        115.618,
        115.61,
        115.583,
        115.56,
        115.497,
        115.48,
        115.47,
        115.523,
        115.52,
        115.506,
        115.484,
        115.481,
        115.497,
        115.502,
        115.487,
        115.475,
        115.44,
        115.435,
        115.426,
        115.441,
        115.43,
        115.417,
        115.42,
        115.426,
        115.416,
        115.421,
        115.403,
        115.378,
        115.343,
        115.321,
        115.311,
        115.293,
        115.292,
        115.303,
        115.327,
        115.377,
        115.392,
        115.426,
        115.428,
        115.436,
        115.45,
        115.485,
        115.482,
        115.479,
        115.491,
        115.517,
        115.534,
        115.564,
        115.606,
        115.648,
        115.649,
        115.668,
        115.687,
        115.708,
        115.713,
        115.734,
        115.737,
        115.744,
        115.726,
        115.755,
        115.784,
        115.788,
        115.783,
        115.823,
        115.832,
        115.835,
        115.813,
        115.827,
        115.81,
        115.785,
        115.764,
        115.783,
        115.798,
        115.824,
        115.799,
        115.779,
        115.741,
        115.724,
        115.71,
        115.708,
        115.666,
        115.656,
        115.642,
        115.619,
        115.577,
        115.597,
        115.577,
        115.585,
        115.568,
        115.57,
        115.567,
        115.549,
        115.55,
        115.55,
        115.55,
        115.603,
        115.617,
        115.626,
        115.585,
        115.589,
        115.625,
        115.668,
        115.647,
        115.655,
        115.678,
        115.696,
        115.665,
        115.657,
        115.643,
        115.628,
        115.607,
        115.626,
        115.64,
        115.663,
        115.645,
        115.618,
        115.579,
        115.566,
        115.601,
        115.673,
        115.697,
        115.686,
        115.659,
        115.661,
        115.662,
        115.65,
        115.637,
        115.645,
        115.635,
        115.653,
        115.674,
        115.69,
        115.668,
        115.691,
        115.677,
        115.692,
        115.662,
        115.62,
        115.607,
        115.586,
        115.529,
        115.505,
        115.483,
        115.492,
        115.498,
        115.482,
        115.475,
        115.512,
        115.509,
        115.511,
        115.49,
        115.495,
        115.517,
        115.55,
        115.53,
        115.519,
        115.488,
        115.519,
        115.542,
        115.546,
        115.52,
        115.532,
        115.524,
        115.51,
        115.487,
        115.458,
        115.463,
        115.521,
        115.52,
        115.527,
        115.512,
        115.52,
        115.521,
        115.505,
        115.482,
        115.458,
        115.453,
        115.486,
        115.473,
        115.497,
        115.486,
        115.485,
        115.48,
        115.509,
        115.555,
        115.59,
        115.626,
        115.651,
        115.604,
        115.59,
        115.545,
        115.555,
        115.568,
        115.577,
        115.55,
        115.557,
        115.585,
        115.581,
        115.576,
        115.602,
        115.602,
        115.64,
        115.629,
        115.625,
        115.581,
        115.549,
        115.52,
        115.507,
        115.477,
        115.487,
        115.468,
        115.5,
        115.475,
        115.465,
        115.428,
        115.466,
        115.455,
        115.444,
        115.424,
        115.406,
        115.366,
        115.358,
        115.35,
        115.381,
        115.402,
        115.443,
        115.432,
        115.46,
        115.475,
        115.501,
        115.523,
        115.575,
        115.589,
        115.644,
        115.631,
        115.65,
        115.664,
        115.679,
        115.68,
        115.707,
        115.694,
        115.697,
        115.679,
        115.668,
        115.675,
        115.699,
        115.698,
        115.728,
        115.711,
        115.73,
        115.717,
        115.7,
        115.678,
        115.695,
        115.683,
        115.702,
        115.698,
        115.672,
        115.655,
        115.676,
        115.682,
        115.719,
        115.757,
        115.782,
        115.801,
        115.814,
        115.78,
        115.757,
        115.75,
        115.763,
        115.744,
        115.772,
        115.783,
        115.788,
        115.754,
        115.751,
        115.765,
        115.8,
        115.813,
        115.83,
        115.823,
        115.83,
        115.817,
        115.81,
        115.8,
        115.782,
        115.733,
        115.732,
        115.712,
        115.728,
        115.717,
        115.728,
        115.707,
        115.679,
        115.634,
        115.63,
        115.606,
        115.588,
        115.543,
        115.54,
        115.565,
        115.602,
        115.6,
        115.606,
        115.587,
        115.595,
        115.582,
        115.634,
        115.629,
        115.665,
        115.656,
        115.667,
        115.672,
        115.669,
        115.681,
        115.721,
        115.733,
        115.757,
        115.746,
        115.77,
        115.771,
        115.755,
        115.705,
        115.701,
        115.67,
        115.664,
        115.649,
        115.667,
        115.627,
        115.619,
        115.595,
        115.584,
        115.551,
        115.522,
        115.51,
        115.485,
        115.457,
        115.462,
        115.415,
        115.424,
        115.404,
        115.4,
        115.375,
        115.385,
        115.379,
        115.394,
        115.41,
        115.48,
        115.511,
        115.551,
        115.56,
        115.561,
        115.556,
        115.587,
        115.576,
        115.607,
        115.622,
        115.662,
        115.685,
        115.759,
        115.77,
        115.809,
        115.8,
        115.789,
        115.765,
        115.75,
        115.751,
        115.772,
        115.73,
        115.69,
        115.62,
        115.62,
        115.617,
        115.61,
        115.602,
        115.632,
        115.593,
        115.605,
        115.578,
        115.549,
        115.509,
        115.488,
        115.447,
        115.454,
        115.47,
        115.503,
        115.5,
        115.524,
        115.509,
        115.487,
        115.498,
        115.548,
        115.536,
        115.544,
        115.556,
        115.551,
        115.521,
        115.54,
        115.536,
        115.546,
        115.564,
        115.594,
        115.59,
        115.588,
        115.574,
        115.582,
        115.572,
        115.585,
        115.564,
        115.565,
        115.566,
        115.551,
        115.536,
        115.539,
        115.535,
        115.539,
        115.533,
        115.55,
        115.531,
        115.537,
        115.526,
        115.503,
        115.467,
        115.5,
        115.518,
        115.53,
        115.508,
        115.506,
        115.499,
        115.518,
        115.511,
        115.521,
        115.528,
        115.541,
        115.562,
        115.575,
        115.556,
        115.58,
        115.559,
        115.54,
        115.49,
        115.471,
        115.461,
        115.475,
        115.463,
        115.477,
        115.482,
        115.5,
        115.506,
        115.51,
        115.507,
        115.53,
        115.55,
        115.568,
        115.565,
        115.579,
        115.592,
        115.623,
        115.602,
        115.63,
        115.673,
        115.732,
        115.751,
        115.785,
        115.799,
        115.808,
        115.79,
        115.772,
        115.757,
        115.749,
        115.749,
        115.718,
        115.695,
        115.693,
        115.683,
        115.704,
        115.69,
        115.697,
        115.692,
        115.703,
        115.675,
        115.658,
        115.604,
        115.583,
        115.548,
        115.535,
        115.521,
        115.508,
        115.488,
        115.494,
        115.474,
        115.479,
        115.484,
        115.468,
        115.422,
        115.406,
        115.379,
        115.408,
        115.395,
        115.403,
        115.39,
        115.421,
        115.436,
        115.483,
        115.516,
        115.555,
        115.563,
        115.576,
        115.608,
        115.646,
        115.66,
        115.71,
        115.711,
        115.718,
        115.696,
        115.734,
        115.785,
        115.817,
        115.822,
        115.82,
        115.776,
        115.795,
        115.764,
        115.746,
        115.727,
        115.739,
        115.733,
        115.74,
        115.739,
        115.746,
        115.722,
        115.713,
        115.671,
        115.67,
        115.645,
        115.677,
        115.677,
        115.67,
        115.643,
        115.598,
        115.585,
        115.626,
        115.605,
        115.616,
        115.595,
        115.588,
        115.546,
        115.52,
        115.495,
        115.518,
        115.504,
        115.519,
        115.512,
        115.542,
        115.54,
        115.564,
        115.566,
        115.557,
        115.538,
        115.556,
        115.551,
        115.548,
        115.511,
        115.544,
        115.582,
        115.621,
        115.636,
        115.673,
        115.712,
        115.735,
        115.677,
        115.676,
        115.694,
        115.725,
        115.725,
        115.734,
        115.726,
        115.724,
        115.689,
        115.677,
        115.697,
        115.736,
        115.765,
        115.798,
        115.768,
        115.735,
        115.714,
        115.726,
        115.71,
        115.687,
        115.665,
        115.728,
        115.732,
        115.718,
        115.71,
        115.717,
        115.72,
        115.751,
        115.777,
        115.814,
        115.819,
        115.775,
        115.737,
        115.714,
        115.691,
        115.699,
        115.688,
        115.694,
        115.646,
        115.621,
        115.606,
        115.603,
        115.572,
        115.57,
        115.562,
        115.55,
        115.522,
        115.512,
        115.49,
        115.458,
        115.457,
        115.45,
        115.448,
        115.475,
        115.488,
        115.494,
        115.47,
        115.5,
        115.505,
        115.54,
        115.568,
        115.584,
        115.58,
        115.555,
        115.521,
        115.493,
        115.49,
        115.503,
        115.517,
        115.527,
        115.548,
        115.525,
        115.503,
        115.547,
        115.558,
        115.55,
        115.56,
        115.8,
        115.92,
        115.68,
        115.7,
        115.3,
        115.04,
        116.42,
        116.22,
        115.62
      ]
    ]
  },
  "reference": {
    "type": "Counts",
    "expectedMaxValue": 100.0,
    "expectedMinValue": 0.0,
    "unit": "arbitrary unit",
    "data": [
      [
        0.0,
        94.7,
        95.84,
        96.78,
        98.0,
        99.16,
        100.38,
        101.42,
        102.46,
        103.54,
        104.08,
        104.84,
        104.48,
        105.3,
        104.98,
        105.62,
        105.84,
        105.94,
        105.48,
        105.22,
        104.88,
        105.0,
        105.28,
        105.6,
        106.56,
        110.38,
        110.346,
        110.843,
        111.33,
        111.83,
        112.354,
        112.883,
        113.429,
        113.972,
        114.494,
        115.035,
        115.443,
        115.791,
        116.138,
        116.544,
        116.954,
        117.491,
        118.111,
        119.025,
        120.192,
        121.87,
        124.013,
        126.92,
        130.83,
        135.756,
        141.502,
        148.609,
        156.735,
        165.569,
        175.397,
        185.668,
        197.279,
        209.678,
        222.414,
        235.96,
        250.145,
        264.881,
        279.75,
        294.167,
        309.41,
        325.29,
        342.659,
        358.895,
        375.064,
        392.746,
        409.676,
        425.31,
        440.67,
        455.737,
        471.109,
        485.033,
        499.138,
        512.729,
        526.347,
        540.814,
        556.375,
        571.48,
        585.581,
        599.546,
        615.541,
        631.194,
        646.599,
        660.869,
        676.927,
        691.76,
        703.824,
        716.833,
        730.732,
        747.134,
        761.631,
        774.471,
        789.638,
        803.433,
        817.996,
        835.445,
        849.883,
        863.301,
        875.434,
        888.857,
        902.252,
        916.748,
        929.35,
        940.004,
        952.329,
        964.386,
        977.644,
        990.24,
        1003.004,
        1016.475,
        1024.701,
        1038.81,
        1049.941,
        1059.895,
        1069.458,
        1077.516,
        1079.585,
        1087.854,
        1098.131,
        1104.892,
        1111.007,
        1117.299,
        1119.53,
        1124.204,
        1134.765,
        1140.373,
        1143.533,
        1145.218,
        1146.671,
        1149.336,
        1149.626,
        1149.852,
        1145.832,
        1144.609,
        1146.51,
        1148.692,
        1151.789,
        1155.688,
        1154.771,
        1150.09,
        1151.543,
        1154.69,
        1158.195,
        1163.333,
        1166.499,
        1165.442,
        1171.182,
        1179.066,
        1188.298,
        1198.632,
        1205.945,
        1211.26,
        1219.161,
        1226.458,
        1235.6,
        1239.827,
        1247.587,
        1254.399,
        1263.429,
        1269.892,
        1277.985,
        1284.573,
        1291.084,
        1293.625,
        1296.615,
        1300.163,
        1302.917,
        1301.748,
        1297.758,
        1291.657,
        1284.009,
        1275.116,
        1271.047,
        1262.728,
        1253.358,
        1242.013,
        1231.696,
        1220.628,
        1208.998,
        1196.466,
        1185.259,
        1174.113,
        1160.556,
        1142.96,
        1128.244,
        1113.921,
        1098.508,
        1083.745,
        1069.393,
        1056.657,
        1046.178,
        1038.431,
        1032.026,
        1024.256,
        1019.645,
        1017.049,
        1017.035,
        1015.993,
        1012.265,
        1008.591,
        1007.342,
        1008.585,
        1008.284,
        1010.764,
        1016.68,
        1023.446,
        1027.67,
        1032.71,
        1035.572,
        1037.907,
        1041.109,
        1043.229,
        1042.687,
        1042.427,
        1041.624,
        1040.866,
        1039.98,
        1035.42,
        1032.374,
        1030.461,
        1030.069,
        1024.403,
        1016.953,
        1010.331,
        1003.272,
        994.567,
        986.658,
        979.792,
        972.289,
        965.411,
        957.477,
        948.755,
        942.84,
        938.437,
        933.059,
        928.385,
        922.971,
        916.16,
        912.45,
        909.288,
        903.522,
        896.087,
        891.984,
        888.06,
        884.319,
        880.457,
        877.31,
        871.996,
        867.175,
        863.3,
        859.814,
        858.222,
        857.469,
        855.626,
        851.45,
        848.46,
        846.315,
        844.806,
        844.322,
        840.832,
        835.637,
        832.821,
        831.31,
        830.035,
        829.487,
        828.594,
        827.871,
        826.016,
        825.17,
        823.908,
        823.211,
        821.074,
        819.168,
        816.865,
        812.107,
        810.433,
        808.02,
        804.43,
        799.993,
        794.823,
        791.921,
        790.35,
        788.607,
        786.037,
        783.365,
        782.564,
        780.491,
        776.265,
        773.835,
        772.359,
        771.788,
        769.483,
        768.432,
        765.052,
        761.78,
        761.332,
        760.521,
        759.06,
        757.146,
        757.454,
        758.147,
        757.906,
        756.032,
        753.348,
        749.872,
        746.125,
        741.176,
        737.084,
        733.827,
        729.495,
        724.388,
        718.389,
        713.935,
        711.873,
        711.121,
        710.599,
        707.969,
        704.503,
        703.239,
        701.644,
        699.703,
        697.536,
        697.4,
        698.882,
        700.787,
        702.549,
        704.133,
        704.875,
        705.923,
        708.83,
        711.474,
        713.491,
        715.773,
        717.003,
        717.578,
        717.202,
        716.871,
        716.983,
        716.11,
        714.78,
        713.17,
        711.471,
        709.615,
        706.748,
        703.483,
        700.62,
        699.374,
        698.089,
        696.873,
        695.521,
        693.75,
        692.459,
        691.319,
        689.516,
        688.93,
        687.851,
        687.604,
        687.188,
        686.518,
        687.699,
        688.644,
        691.198,
        692.845,
        695.658,
        697.349,
        698.081,
        698.994,
        699.528,
        700.79,
        702.013,
        703.697,
        705.356,
        707.357,
        709.325,
        711.49,
        713.184,
        714.506,
        715.728,
        716.675,
        718.482,
        719.285,
        720.199,
        720.568,
        721.716,
        722.314,
        723.594,
        726.382,
        729.351,
        731.536,
        733.435,
        736.011,
        738.036,
        741.446,
        744.573,
        747.991,
        752.308,
        756.942,
        762.326,
        767.022,
        772.508,
        777.667,
        783.078,
        788.529,
        795.007,
        799.909,
        804.914,
        809.773,
        814.731,
        818.903,
        823.002,
        826.559,
        829.635,
        833.815,
        837.093,
        839.529,
        842.822,
        845.776,
        848.201,
        850.531,
        852.721,
        854.211,
        856.089,
        857.245,
        859.317,
        861.277,
        864.701,
        868.441,
        870.898,
        872.5,
        873.792,
        876.957,
        878.934,
        882.12,
        884.043,
        887.108,
        890.911,
        894.946,
        900.178,
        905.737,
        910.125,
        914.548,
        918.522,
        922.687,
        925.218,
        928.066,
        929.294,
        928.423,
        926.716,
        927.79,
        929.228,
        930.5,
        929.913,
        931.849,
        931.291,
        931.72,
        929.475,
        924.957,
        919.563,
        913.452,
        906.661,
        901.546,
        897.107,
        892.884,
        888.181,
        885.752,
        880.562,
        877.227,
        875.632,
        874.267,
        871.948,
        871.63,
        871.181,
        870.221,
        869.022,
        868.967,
        868.466,
        868.73,
        869.871,
        872.662,
        874.926,
        877.88,
        880.747,
        885.031,
        888.239,
        893.661,
        899.473,
        907.771,
        914.87,
        921.909,
        930.576,
        936.89,
        941.387,
        946.959,
        952.613,
        958.129,
        964.298,
        968.291,
        973.357,
        980.039,
        984.596,
        990.083,
        996.344,
        1000.584,
        1004.813,
        1011.276,
        1017.416,
        1023.437,
        1028.078,
        1034.356,
        1039.381,
        1042.176,
        1045.004,
        1049.698,
        1054.18,
        1059.398,
        1064.355,
        1069.838,
        1077.403,
        1083.49,
        1090.165,
        1097.143,
        1102.118,
        1107.595,
        1114.28,
        1119.629,
        1122.194,
        1123.865,
        1127.868,
        1131.496,
        1136.478,
        1143.746,
        1151.908,
        1163.801,
        1174.546,
        1187.194,
        1204.696,
        1220.371,
        1239.941,
        1261.903,
        1288.92,
        1314.971,
        1346.4,
        1382.023,
        1413.45,
        1447.637,
        1487.814,
        1528.875,
        1571.691,
        1610.861,
        1650.667,
        1687.09,
        1726.41,
        1761.882,
        1797.48,
        1834.052,
        1867.127,
        1896.328,
        1928.472,
        1956.668,
        1981.678,
        2002.22,
        2026.096,
        2040.091,
        2054.371,
        2072.525,
        2087.343,
        2094.717,
        2103.082,
        2109.309,
        2121.408,
        2129.075,
        2141.045,
        2145.915,
        2155.526,
        2166.624,
        2176.949,
        2191.589,
        2209.891,
        2231.649,
        2251.659,
        2279.81,
        2305.404,
        2331.981,
        2367.537,
        2399.993,
        2439.256,
        2472.589,
        2506.315,
        2542.206,
        2577.686,
        2606.975,
        2641.303,
        2665.296,
        2692.764,
        2726.68,
        2753.359,
        2773.561,
        2786.897,
        2796.286,
        2800.92,
        2806.561,
        2805.928,
        2806.455,
        2804.846,
        2798.085,
        2789.99,
        2782.649,
        2781.975,
        2781.976,
        2782.873,
        2781.496,
        2781.53,
        2790.371,
        2802.483,
        2813.662,
        2824.493,
        2833.372,
        2844.782,
        2859.657,
        2877.311,
        2893.895,
        2907.25,
        2913.889,
        2920.039,
        2921.027,
        2919.533,
        2916.072,
        2906.436,
        2892.928,
        2879.825,
        2860.68,
        2842.832,
        2824.244,
        2794.319,
        2768.203,
        2743.661,
        2711.862,
        2685.703,
        2663.247,
        2641.887,
        2619.993,
        2600.122,
        2584.717,
        2578.298,
        2574.31,
        2576.004,
        2582.06,
        2595.929,
        2609.296,
        2627.848,
        2648.773,
        2674.19,
        2702.779,
        2734.419,
        2769.214,
        2803.178,
        2835.971,
        2869.643,
        2900.546,
        2928.275,
        2954.434,
        2975.742,
        2992.917,
        3004.964,
        3009.993,
        3012.016,
        3007.718,
        2998.677,
        2982.841,
        2961.598,
        2936.894,
        2908.831,
        2875.818,
        2839.258,
        2799.177,
        2756.037,
        2713.404,
        2670.319,
        2624.966,
        2582.115,
        2541.728,
        2501.213,
        2463.958,
        2429.555,
        2398.646,
        2373.539,
        2350.472,
        2331.119,
        2316.487,
        2303.759,
        2295.334,
        2288.941,
        2284.158,
        2282.347,
        2282.017,
        2283.01,
        2284.63,
        2284.727,
        2285.534,
        2286.393,
        2288.168,
        2288.24,
        2288.106,
        2285.493,
        2282.808,
        2279.425,
        2272.799,
        2265.998,
        2258.829,
        2249.681,
        2239.375,
        2228.805,
        2217.386,
        2204.77,
        2193.63,
        2180.862,
        2168.563,
        2157.364,
        2147.373,
        2137.321,
        2128.541,
        2119.582,
        2111.825,
        2106.43,
        2102.471,
        2098.166,
        2096.016,
        2095.18,
        2093.92,
        2093.9,
        2095.036,
        2097.928,
        2100.661,
        2104.079,
        2107.322,
        2111.048,
        2116.625,
        2122.05,
        2126.528,
        2131.716,
        2137.422,
        2143.85,
        2149.256,
        2156.751,
        2162.658,
        2169.476,
        2175.578,
        2181.589,
        2187.893,
        2195.898,
        2202.798,
        2208.932,
        2214.529,
        2221.398,
        2228.214,
        2236.093,
        2243.776,
        2248.618,
        2254.482,
        2262.41,
        2268.539,
        2275.218,
        2281.156,
        2287.819,
        2293.917,
        2301.687,
        2307.069,
        2315.643,
        2323.36,
        2331.705,
        2339.448,
        2345.799,
        2353.67,
        2361.893,
        2369.08,
        2377.814,
        2387.086,
        2395.114,
        2406.458,
        2415.289,
        2424.38,
        2434.56,
        2445.213,
        2454.611,
        2465.226,
        2474.883,
        2484.763,
        2496.12,
        2507.248,
        2518.176,
        2528.655,
        2539.532,
        2552.088,
        2564.073,
        2575.54,
        2587.83,
        2598.871,
        2609.78,
        2621.279,
        2631.56,
        2643.585,
        2654.185,
        2666.027,
        2675.169,
        2686.862,
        2699.278,
        2709.854,
        2720.621,
        2732.056,
        2741.796,
        2751.65,
        2761.726,
        2771.747,
        2781.75,
        2790.631,
        2800.783,
        2810.217,
        2819.805,
        2827.835,
        2835.107,
        2843.864,
        2850.82,
        2859.323,
        2866.271,
        2875.025,
        2883.171,
        2889.456,
        2897.734,
        2902.83,
        2907.642,
        2911.052,
        2915.735,
        2919.417,
        2923.155,
        2927.148,
        2931.528,
        2934.651,
        2936.91,
        2938.312,
        2940.574,
        2943.694,
        2944.549,
        2946.402,
        2945.858,
        2947.011,
        2947.282,
        2947.826,
        2946.799,
        2945.195,
        2945.387,
        2944.494,
        2946.549,
        2945.852,
        2945.021,
        2946.402,
        2947.466,
        2948.196,
        2948.788,
        2947.895,
        2947.074,
        2948.516,
        2949.038,
        2950.917,
        2953.05,
        2955.585,
        2957.058,
        2960.055,
        2960.771,
        2962.945,
        2965.855,
        2969.614,
        2973.044,
        2975.97,
        2980.565,
        2984.192,
        2986.973,
        2990.232,
        2992.39,
        2995.825,
        3001.537,
        3007.839,
        3013.169,
        3018.602,
        3023.553,
        3029.998,
        3036.139,
        3040.44,
        3045.28,
        3050.629,
        3056.792,
        3061.742,
        3066.788,
        3072.697,
        3076.822,
        3081.632,
        3088.188,
        3092.37,
        3096.544,
        3102.971,
        3108.439,
        3113.683,
        3118.751,
        3123.14,
        3127.249,
        3131.952,
        3135.007,
        3139.04,
        3143.411,
        3147.646,
        3152.703,
        3157.69,
        3162.351,
        3166.577,
        3171.171,
        3176.375,
        3179.751,
        3183.141,
        3186.826,
        3190.413,
        3192.98,
        3196.407,
        3199.698,
        3203.217,
        3204.711,
        3207.319,
        3209.073,
        3210.685,
        3212.477,
        3214.294,
        3215.763,
        3216.49,
        3217.246,
        3216.846,
        3218.001,
        3218.052,
        3218.283,
        3219.484,
        3220.507,
        3221.76,
        3222.452,
        3222.214,
        3224.065,
        3223.045,
        3222.996,
        3223.247,
        3224.782,
        3225.532,
        3225.269,
        3225.7,
        3227.128,
        3226.984,
        3227.95,
        3227.257,
        3229.313,
        3228.743,
        3228.624,
        3227.636,
        3227.438,
        3226.703,
        3225.411,
        3224.234,
        3226.106,
        3224.017,
        3222.363,
        3221.225,
        3220.272,
        3218.359,
        3215.704,
        3214.852,
        3212.264,
        3209.828,
        3207.761,
        3204.274,
        3202.937,
        3199.293,
        3197.137,
        3195.778,
        3194.783,
        3191.807,
        3187.834,
        3185.557,
        3183.54,
        3180.023,
        3176.013,
        3176.612,
        3174.882,
        3173.037,
        3170.62,
        3168.698,
        3166.882,
        3165.254,
        3164.372,
        3163.509,
        3162.32,
        3160.102,
        3159.671,
        3159.113,
        3157.916,
        3156.718,
        3156.948,
        3157.533,
        3158.96,
        3164.813,
        3172.75,
        3180.223,
        3183.119,
        3185.531,
        3186.778,
        3189.926,
        3194.407,
        3197.801,
        3199.752,
        3198.71,
        3199.179,
        3200.552,
        3201.778,
        3202.969,
        3203.329,
        3205.857,
        3207.656,
        3210.365,
        3214.01,
        3216.777,
        3215.63,
        3212.811,
        3212.854,
        3215.913,
        3220.673,
        3228.18,
        3235.679,
        3244.011,
        3253.859,
        3267.589,
        3286.307,
        3304.686,
        3325.109,
        3345.793,
        3369.756,
        3393.788,
        3417.911,
        3443.889,
        3468.317,
        3493.259,
        3516.067,
        3536.744,
        3556.46,
        3573.144,
        3586.495,
        3598.536,
        3606.707,
        3610.66,
        3610.631,
        3606.397,
        3599.037,
        3587.954,
        3573.563,
        3555.84,
        3536.231,
        3511.92,
        3486.231,
        3456.417,
        3426.773,
        3395.747,
        3362.883,
        3330.799,
        3298.356,
        3266.857,
        3235.88,
        3207.145,
        3178.62,
        3151.291,
        3126.695,
        3104.066,
        3084.402,
        3064.464,
        3045.83,
        3027.548,
        3012.042,
        2997.216,
        2981.847,
        2968.085,
        2957.185,
        2944.48,
        2932.433,
        2921.004,
        2910.117,
        2900.046,
        2889.346,
        2878.481,
        2867.32,
        2856.677,
        2847.813,
        2837.118,
        2827.218,
        2817.199,
        2808.23,
        2797.936,
        2789.415,
        2779.813,
        2770.861,
        2762.732,
        2755.324,
        2745.715,
        2737.034,
        2728.257,
        2720.779,
        2711.999,
        2704.782,
        2696.395,
        2689.916,
        2682.711,
        2675.92,
        2669.495,
        2663.434,
        2657.372,
        2651.488,
        2645.493,
        2639.464,
        2634.715,
        2628.982,
        2623.721,
        2617.547,
        2612.555,
        2607.749,
        2601.838,
        2597.21,
        2590.879,
        2586.205,
        2581.344,
        2575.705,
        2571.077,
        2567.397,
        2561.961,
        2556.955,
        2552.039,
        2547.096,
        2542.253,
        2538.601,
        2534.964,
        2530.331,
        2527.485,
        2521.955,
        2519.321,
        2513.998,
        2509.654,
        2505.472,
        2500.63,
        2497.038,
        2491.516,
        2484.829,
        2479.037,
        2471.793,
        2463.296,
        2456.505,
        2448.327,
        2439.695,
        2429.912,
        2420.546,
        2409.369,
        2398.859,
        2388.472,
        2376.395,
        2366.7,
        2354.392,
        2342.907,
        2331.78,
        2320.893,
        2309.203,
        2297.193,
        2287.109,
        2277.009,
        2267.839,
        2259.361,
        2251.198,
        2242.387,
        2233.871,
        2226.255,
        2219.635,
        2213.055,
        2206.596,
        2200.915,
        2194.323,
        2188.0,
        2182.315,
        2177.006,
        2171.429,
        2165.36,
        2159.247,
        2154.407,
        2149.763,
        2143.336,
        2137.878,
        2132.282,
        2125.261,
        2119.032,
        2113.421,
        2107.428,
        2101.021,
        2094.236,
        2087.418,
        2081.28,
        2074.001,
        2066.824,
        2059.992,
        2051.968,
        2044.433,
        2037.324,
        2030.133,
        2022.656,
        2016.124,
        2008.043,
        2001.326,
        1994.139,
        1987.391,
        1980.969,
        1974.269,
        1967.429,
        1960.803,
        1954.627,
        1948.267,
        1941.523,
        1935.189,
        1928.737,
        1922.606,
        1916.906,
        1910.985,
        1904.576,
        1897.833,
        1891.667,
        1886.12,
        1879.433,
        1872.952,
        1866.504,
        1860.012,
        1852.89,
        1846.332,
        1840.211,
        1833.368,
        1827.095,
        1820.566,
        1814.876,
        1808.584,
        1802.448,
        1796.602,
        1790.157,
        1783.106,
        1776.704,
        1770.19,
        1764.93,
        1758.948,
        1752.299,
        1745.461,
        1739.828,
        1733.905,
        1728.014,
        1722.306,
        1717.444,
        1711.228,
        1705.056,
        1698.886,
        1693.173,
        1686.552,
        1680.686,
        1674.458,
        1667.827,
        1661.416,
        1655.399,
        1650.147,
        1645.09,
        1638.317,
        1632.876,
        1627.519,
        1622.057,
        1616.527,
        1610.397,
        1604.233,
        1597.891,
        1591.15,
        1585.151,
        1579.744,
        1574.732,
        1568.671,
        1563.093,
        1557.245,
        1551.361,
        1546.473,
        1541.436,
        1535.884,
        1529.916,
        1524.294,
        1518.911,
        1513.018,
        1507.182,
        1501.509,
        1495.809,
        1490.188,
        1484.654,
        1479.378,
        1473.025,
        1467.46,
        1461.583,
        1455.103,
        1449.009,
        1442.955,
        1437.089,
        1431.414,
        1425.39,
        1419.519,
        1413.704,
        1408.068,
        1402.131,
        1396.451,
        1389.857,
        1384.018,
        1378.87,
        1372.717,
        1366.805,
        1361.048,
        1355.541,
        1350.609,
        1345.368,
        1339.75,
        1334.039,
        1328.673,
        1323.769,
        1318.808,
        1313.046,
        1307.966,
        1302.524,
        1297.121,
        1292.036,
        1287.03,
        1281.88,
        1277.062,
        1271.984,
        1266.114,
        1261.42,
        1256.216,
        1251.361,
        1246.267,
        1240.441,
        1235.105,
        1229.87,
        1225.348,
        1220.397,
        1215.13,
        1210.111,
        1205.629,
        1199.971,
        1194.729,
        1189.712,
        1183.643,
        1178.497,
        1173.242,
        1168.581,
        1164.112,
        1159.174,
        1154.541,
        1149.958,
        1145.011,
        1140.219,
        1136.068,
        1132.195,
        1128.285,
        1123.991,
        1119.779,
        1115.459,
        1110.612,
        1105.585,
        1102.128,
        1098.508,
        1094.704,
        1091.346,
        1087.837,
        1084.074,
        1079.656,
        1075.359,
        1072.124,
        1068.067,
        1064.779,
        1061.53,
        1057.583,
        1053.817,
        1049.698,
        1045.875,
        1041.828,
        1038.092,
        1034.43,
        1031.479,
        1028.413,
        1024.562,
        1020.947,
        1017.642,
        1014.209,
        1010.891,
        1008.013,
        1005.187,
        1002.178,
        999.38,
        996.633,
        993.161,
        990.678,
        988.357,
        985.837,
        983.431,
        981.175,
        978.999,
        976.674,
        975.189,
        972.794,
        970.456,
        968.583,
        966.796,
        964.378,
        962.093,
        959.854,
        957.972,
        956.719,
        955.135,
        952.547,
        950.568,
        949.394,
        947.099,
        945.027,
        942.91,
        940.855,
        938.79,
        936.72,
        935.446,
        933.494,
        932.241,
        931.019,
        929.285,
        927.543,
        926.56,
        925.799,
        924.832,
        923.441,
        921.513,
        919.947,
        918.475,
        916.778,
        915.188,
        914.109,
        913.088,
        912.463,
        911.3,
        910.601,
        910.151,
        909.158,
        907.75,
        906.368,
        905.137,
        904.104,
        902.927,
        901.914,
        900.271,
        898.724,
        897.29,
        896.225,
        895.414,
        895.154,
        894.856,
        893.929,
        892.871,
        892.144,
        891.27,
        890.602,
        889.402,
        887.907,
        886.413,
        885.493,
        884.36,
        883.306,
        882.08,
        881.357,
        880.55,
        880.066,
        879.049,
        878.368,
        877.373,
        876.63,
        875.357,
        874.337,
        873.471,
        872.594,
        871.501,
        870.388,
        869.383,
        868.279,
        867.553,
        866.817,
        865.904,
        864.79,
        863.439,
        862.019,
        860.439,
        859.004,
        857.067,
        856.315,
        854.55,
        853.044,
        850.955,
        849.32,
        847.258,
        845.275,
        843.066,
        840.774,
        838.808,
        836.507,
        834.16,
        831.972,
        829.928,
        827.971,
        826.02,
        824.396,
        823.164,
        821.915,
        820.72,
        820.039,
        818.609,
        817.62,
        817.161,
        816.668,
        816.381,
        816.26,
        816.755,
        817.032,
        817.765,
        818.3,
        819.526,
        820.977,
        821.928,
        823.345,
        824.681,
        826.683,
        828.558,
        830.21,
        831.874,
        833.701,
        835.618,
        837.787,
        840.68,
        842.549,
        844.722,
        847.019,
        849.522,
        851.277,
        853.56,
        855.76,
        858.001,
        859.946,
        862.12,
        864.897,
        867.218,
        869.5,
        871.884,
        874.497,
        877.181,
        879.627,
        882.192,
        884.691,
        887.39,
        890.215,
        893.152,
        896.446,
        899.391,
        902.534,
        906.327,
        910.231,
        914.321,
        918.725,
        922.966,
        926.762,
        931.069,
        935.567,
        940.703,
        945.313,
        950.471,
        955.491,
        961.107,
        966.367,
        972.225,
        977.44,
        983.092,
        989.645,
        996.222,
        1002.581,
        1009.385,
        1016.121,
        1023.42,
        1030.244,
        1037.389,
        1044.858,
        1053.179,
        1060.855,
        1068.332,
        1075.873,
        1084.083,
        1092.574,
        1101.239,
        1110.364,
        1119.476,
        1128.785,
        1139.199,
        1148.642,
        1158.998,
        1169.014,
        1179.343,
        1188.871,
        1199.263,
        1209.309,
        1220.002,
        1231.03,
        1242.533,
        1253.347,
        1264.644,
        1276.406,
        1288.099,
        1298.881,
        1309.855,
        1321.302,
        1331.696,
        1342.801,
        1353.696,
        1364.423,
        1374.625,
        1383.984,
        1393.15,
        1402.746,
        1412.377,
        1421.469,
        1430.685,
        1439.076,
        1446.602,
        1453.464,
        1461.325,
        1466.906,
        1472.185,
        1476.922,
        1481.085,
        1482.881,
        1483.907,
        1483.452,
        1480.756,
        1476.328,
        1469.925,
        1461.367,
        1450.921,
        1437.008,
        1419.997,
        1400.5,
        1378.556,
        1353.684,
        1326.688,
        1297.197,
        1266.592,
        1233.081,
        1199.579,
        1165.091,
        1129.6,
        1094.372,
        1059.541,
        1024.523,
        990.912,
        958.393,
        926.867,
        896.72,
        869.53,
        843.809,
        821.419,
        801.876,
        785.265,
        771.486,
        760.51,
        752.316,
        747.063,
        743.532,
        742.638,
        744.269,
        747.237,
        751.765,
        757.707,
        764.823,
        773.435,
        783.368,
        794.25,
        805.809,
        818.376,
        831.351,
        845.08,
        858.775,
        873.148,
        887.882,
        902.337,
        916.81,
        931.979,
        946.429,
        961.073,
        975.558,
        989.442,
        1003.776,
        1017.663,
        1031.335,
        1045.639,
        1058.787,
        1070.736,
        1082.644,
        1094.539,
        1105.68,
        1115.737,
        1125.755,
        1136.126,
        1145.467,
        1154.629,
        1163.105,
        1171.538,
        1179.046,
        1186.112,
        1192.639,
        1199.052,
        1205.573,
        1210.846,
        1216.285,
        1221.013,
        1224.34,
        1227.956,
        1231.529,
        1233.948,
        1236.94,
        1239.073,
        1241.208,
        1242.655,
        1244.63,
        1246.066,
        1246.311,
        1247.648,
        1247.348,
        1247.08,
        1247.597,
        1247.059,
        1246.618,
        1245.345,
        1244.115,
        1242.452,
        1240.819,
        1239.544,
        1237.489,
        1235.534,
        1233.857,
        1231.232,
        1228.692,
        1226.369,
        1223.662,
        1219.975,
        1216.508,
        1213.868,
        1209.436,
        1205.785,
        1202.083,
        1197.891,
        1193.612,
        1188.994,
        1184.765,
        1180.236,
        1175.184,
        1170.09,
        1165.056,
        1160.364,
        1155.071,
        1149.696,
        1144.069,
        1138.838,
        1133.077,
        1127.545,
        1121.834,
        1115.943,
        1110.037,
        1104.669,
        1098.885,
        1092.612,
        1086.475,
        1080.239,
        1074.001,
        1067.544,
        1060.78,
        1054.621,
        1048.18,
        1041.604,
        1034.471,
        1027.517,
        1021.049,
        1014.37,
        1007.646,
        1000.916,
        993.758,
        987.099,
        980.567,
        973.403,
        966.293,
        959.528,
        952.58,
        945.668,
        939.472,
        932.902,
        926.3,
        920.045,
        913.864,
        907.732,
        901.76,
        896.167,
        890.738,
        885.224,
        879.878,
        874.364,
        869.083,
        864.371,
        859.013,
        853.862,
        849.237,
        844.323,
        839.672,
        835.366,
        830.458,
        825.914,
        821.458,
        816.891,
        812.722,
        808.291,
        803.95,
        799.274,
        794.684,
        790.171,
        785.573,
        780.9,
        776.129,
        771.537,
        766.553,
        761.911,
        757.293,
        752.398,
        747.642,
        742.599,
        737.445,
        732.802,
        727.848,
        722.856,
        717.713,
        712.473,
        707.241,
        702.065,
        697.05,
        692.085,
        686.96,
        681.852,
        676.799,
        671.537,
        666.436,
        661.242,
        656.305,
        651.172,
        646.142,
        641.008,
        636.093,
        631.328,
        626.368,
        620.99,
        616.087,
        611.379,
        606.457,
        601.546,
        596.916,
        592.09,
        587.017,
        582.191,
        577.196,
        572.199,
        567.462,
        562.445,
        557.75,
        553.072,
        548.515,
        543.441,
        538.496,
        533.595,
        528.661,
        523.686,
        519.068,
        514.227,
        509.206,
        504.402,
        499.75,
        494.732,
        489.738,
        485.035,
        480.355,
        475.669,
        470.965,
        466.285,
        461.947,
        457.305,
        452.592,
        447.812,
        443.458,
        439.199,
        434.751,
        430.389,
        426.145,
        422.012,
        417.772,
        413.824,
        409.881,
        405.854,
        401.971,
        398.274,
        394.604,
        390.966,
        387.412,
        383.913,
        380.457,
        376.871,
        373.55,
        370.173,
        366.861,
        363.637,
        360.37,
        357.344,
        354.269,
        351.313,
        348.291,
        345.288,
        342.39,
        339.443,
        336.539,
        333.734,
        330.946,
        328.188,
        325.292,
        322.573,
        319.853,
        317.27,
        314.734,
        312.18,
        309.614,
        307.128,
        304.61,
        302.03,
        299.601,
        297.165,
        294.717,
        292.367,
        289.962,
        287.627,
        285.351,
        283.11,
        280.955,
        278.802,
        276.633,
        274.53,
        272.47,
        270.374,
        268.348,
        266.272,
        264.266,
        262.401,
        260.533,
        258.657,
        256.888,
        255.001,
        253.244,
        251.586,
        249.884,
        248.312,
        246.652,
        245.01,
        243.524,
        241.973,
        240.386,
        238.808,
        237.308,
        235.606,
        233.974,
        232.289,
        230.721,
        229.15,
        227.529,
        225.854,
        224.17,
        222.59,
        220.911,
        219.251,
        217.483,
        215.615,
        213.809,
        211.947,
        210.176,
        208.239,
        206.368,
        204.536,
        202.698,
        200.874,
        199.08,
        197.321,
        195.583,
        193.799,
        191.97,
        190.181,
        188.45,
        186.754,
        185.004,
        183.309,
        181.693,
        180.061,
        178.533,
        176.889,
        175.406,
        173.881,
        172.396,
        170.866,
        169.4,
        167.978,
        166.549,
        165.169,
        163.776,
        162.444,
        161.151,
        159.846,
        158.542,
        157.271,
        156.004,
        154.754,
        153.63,
        152.43,
        151.298,
        150.5,
        148.86,
        147.3,
        146.38,
        145.04,
        143.68,
        142.44,
        142.96,
        141.5,
        140.76
      ]
    ]
  },
  "comments": null,
  "referenceCertifiedValues": null,
  "annotations": null
}